##TITLE=воздух 1 без апод.ascii
##$NOTE=17.03.2022 15:47:1 ^0 x10 v:1 [Без приставки]
##$ITAB=-1,-1
##FIRSTX=5000.29
##DELTAX=-0.482281
##NPOINTS=9333
##XUNITS=1/CM
##YUNITS=TRANSMITTANCE
5000.29	1.05034e+006
4999.81	1.05105e+006
4999.32	1.06282e+006
4998.84	1.07008e+006
4998.36	1.05905e+006
4997.88	1.03866e+006
4997.39	1.02945e+006
4996.91	1.03626e+006
4996.43	1.04382e+006
4995.95	1.03915e+006
4995.47	1.02817e+006
4994.98	1.02642e+006
4994.5	1.03982e+006
4994.02	1.05872e+006
4993.54	1.0682e+006
4993.05	1.06219e+006
4992.57	1.04914e+006
4992.09	1.04396e+006
4991.61	1.05197e+006
4991.13	1.06209e+006
4990.64	1.0606e+006
4990.16	1.05039e+006
4989.68	1.04868e+006
4989.2	1.06298e+006
4988.71	1.0782e+006
4988.23	1.07583e+006
4987.75	1.0599e+006
4987.27	1.05206e+006
4986.78	1.06122e+006
4986.3	1.07135e+006
4985.82	1.06529e+006
4985.34	1.0499e+006
4984.86	1.04638e+006
4984.37	1.06071e+006
4983.89	1.07628e+006
4983.41	1.0765e+006
4982.93	1.06396e+006
4982.44	1.05289e+006
4981.96	1.05114e+006
4981.48	1.056e+006
4981	1.0629e+006
4980.51	1.07029e+006
4980.03	1.07637e+006
4979.55	1.07731e+006
4979.07	1.07206e+006
4978.59	1.06647e+006
4978.1	1.06807e+006
4977.62	1.07541e+006
4977.14	1.07691e+006
4976.66	1.06623e+006
4976.17	1.05658e+006
4975.69	1.06904e+006
4975.21	1.10293e+006
4974.73	1.12903e+006
4974.25	1.12272e+006
4973.76	1.09619e+006
4973.28	1.08361e+006
4972.8	1.09738e+006
4972.32	1.11406e+006
4971.83	1.10617e+006
4971.35	1.07539e+006
4970.87	1.04896e+006
4970.39	1.05057e+006
4969.9	1.07847e+006
4969.42	1.10813e+006
4968.94	1.11632e+006
4968.46	1.10556e+006
4967.98	1.09902e+006
4967.49	1.10589e+006
4967.01	1.10554e+006
4966.53	1.0819e+006
4966.05	1.05896e+006
4965.56	1.07274e+006
4965.08	1.11285e+006
4964.6	1.12793e+006
4964.12	1.09721e+006
4963.64	1.06121e+006
4963.15	1.06287e+006
4962.67	1.08967e+006
4962.19	1.10184e+006
4961.71	1.09347e+006
4961.22	1.09035e+006
4960.74	1.09994e+006
4960.26	1.10103e+006
4959.78	1.08432e+006
4959.29	1.07198e+006
4958.81	1.08534e+006
4958.33	1.1128e+006
4957.85	1.1233e+006
4957.37	1.10431e+006
4956.88	1.0764e+006
4956.4	1.06915e+006
4955.92	1.08537e+006
4955.44	1.09648e+006
4954.95	1.08071e+006
4954.47	1.05694e+006
4953.99	1.06054e+006
4953.51	1.08907e+006
4953.02	1.1026e+006
4952.54	1.08568e+006
4952.06	1.07341e+006
4951.58	1.09435e+006
4951.1	1.12156e+006
4950.61	1.11508e+006
4950.13	1.0866e+006
4949.65	1.07834e+006
4949.17	1.09398e+006
4948.68	1.0995e+006
4948.2	1.08813e+006
4947.72	1.093e+006
4947.24	1.12583e+006
4946.76	1.14938e+006
4946.27	1.13221e+006
4945.79	1.09589e+006
4945.31	1.0825e+006
4944.83	1.09973e+006
4944.34	1.12222e+006
4943.86	1.12981e+006
4943.38	1.12231e+006
4942.9	1.10849e+006
4942.41	1.09893e+006
4941.93	1.10171e+006
4941.45	1.11212e+006
4940.97	1.11472e+006
4940.49	1.10497e+006
4940	1.09738e+006
4939.52	1.10323e+006
4939.04	1.11348e+006
4938.56	1.11518e+006
4938.07	1.11193e+006
4937.59	1.11374e+006
4937.11	1.11669e+006
4936.63	1.10876e+006
4936.15	1.09123e+006
4935.66	1.08018e+006
4935.18	1.0869e+006
4934.7	1.1052e+006
4934.22	1.11845e+006
4933.73	1.11615e+006
4933.25	1.10533e+006
4932.77	1.10534e+006
4932.29	1.12529e+006
4931.8	1.14869e+006
4931.32	1.15061e+006
4930.84	1.12936e+006
4930.36	1.1079e+006
4929.88	1.10323e+006
4929.39	1.11062e+006
4928.91	1.12111e+006
4928.43	1.13461e+006
4927.95	1.14732e+006
4927.46	1.14604e+006
4926.98	1.12954e+006
4926.5	1.11845e+006
4926.02	1.12627e+006
4925.53	1.13547e+006
4925.05	1.12365e+006
4924.57	1.10215e+006
4924.09	1.10224e+006
4923.61	1.12643e+006
4923.12	1.14082e+006
4922.64	1.12212e+006
4922.16	1.08961e+006
4921.68	1.07819e+006
4921.19	1.09577e+006
4920.71	1.12213e+006
4920.23	1.13935e+006
4919.75	1.1466e+006
4919.27	1.14862e+006
4918.78	1.1461e+006
4918.3	1.14082e+006
4917.82	1.13867e+006
4917.34	1.14114e+006
4916.85	1.14163e+006
4916.37	1.1363e+006
4915.89	1.13195e+006
4915.41	1.13542e+006
4914.92	1.14146e+006
4914.44	1.14128e+006
4913.96	1.1379e+006
4913.48	1.13967e+006
4913	1.1423e+006
4912.51	1.13484e+006
4912.03	1.12368e+006
4911.55	1.12917e+006
4911.07	1.15198e+006
4910.58	1.16599e+006
4910.1	1.15721e+006
4909.62	1.14636e+006
4909.14	1.15346e+006
4908.66	1.16298e+006
4908.17	1.15254e+006
4907.69	1.13657e+006
4907.21	1.14417e+006
4906.73	1.16534e+006
4906.24	1.16264e+006
4905.76	1.1343e+006
4905.28	1.11968e+006
4904.8	1.13359e+006
4904.31	1.14237e+006
4903.83	1.1244e+006
4903.35	1.10911e+006
4902.87	1.12475e+006
4902.39	1.14707e+006
4901.9	1.14214e+006
4901.42	1.1294e+006
4900.94	1.15136e+006
4900.46	1.1971e+006
4899.97	1.21052e+006
4899.49	1.17405e+006
4899.01	1.13407e+006
4898.53	1.13217e+006
4898.04	1.15372e+006
4897.56	1.16278e+006
4897.08	1.15313e+006
4896.6	1.14131e+006
4896.12	1.13505e+006
4895.63	1.13316e+006
4895.15	1.13926e+006
4894.67	1.15362e+006
4894.19	1.16388e+006
4893.7	1.1616e+006
4893.22	1.15657e+006
4892.74	1.15968e+006
4892.26	1.16481e+006
4891.78	1.16322e+006
4891.29	1.16176e+006
4890.81	1.16836e+006
4890.33	1.17296e+006
4889.85	1.16436e+006
4889.36	1.15462e+006
4888.88	1.16203e+006
4888.4	1.17787e+006
4887.92	1.1771e+006
4887.43	1.15866e+006
4886.95	1.14729e+006
4886.47	1.15401e+006
4885.99	1.16261e+006
4885.51	1.16158e+006
4885.02	1.16215e+006
4884.54	1.17277e+006
4884.06	1.17999e+006
4883.58	1.17148e+006
4883.09	1.15889e+006
4882.61	1.15926e+006
4882.13	1.16788e+006
4881.65	1.16828e+006
4881.17	1.15884e+006
4880.68	1.15207e+006
4880.2	1.15488e+006
4879.72	1.16428e+006
4879.24	1.17544e+006
4878.75	1.18129e+006
4878.27	1.17358e+006
4877.79	1.15833e+006
4877.31	1.15844e+006
4876.82	1.18287e+006
4876.34	1.20489e+006
4875.86	1.19436e+006
4875.38	1.16316e+006
4874.9	1.15094e+006
4874.41	1.16882e+006
4873.93	1.18738e+006
4873.45	1.18435e+006
4872.97	1.17358e+006
4872.48	1.17432e+006
4872	1.17955e+006
4871.52	1.17434e+006
4871.04	1.16531e+006
4870.55	1.16869e+006
4870.07	1.18103e+006
4869.59	1.18431e+006
4869.11	1.17437e+006
4868.63	1.16533e+006
4868.14	1.16791e+006
4867.66	1.17945e+006
4867.18	1.194e+006
4866.7	1.20753e+006
4866.21	1.2133e+006
4865.73	1.20613e+006
4865.25	1.19382e+006
4864.77	1.1919e+006
4864.29	1.20333e+006
4863.8	1.21373e+006
4863.32	1.21152e+006
4862.84	1.20264e+006
4862.36	1.19815e+006
4861.87	1.19595e+006
4861.39	1.18646e+006
4860.91	1.17297e+006
4860.43	1.17276e+006
4859.94	1.19389e+006
4859.46	1.22046e+006
4858.98	1.22989e+006
4858.5	1.21964e+006
4858.02	1.20676e+006
4857.53	1.20313e+006
4857.05	1.20326e+006
4856.57	1.19938e+006
4856.09	1.19612e+006
4855.6	1.20164e+006
4855.12	1.21284e+006
4854.64	1.21945e+006
4854.16	1.21786e+006
4853.68	1.21165e+006
4853.19	1.20302e+006
4852.71	1.19328e+006
4852.23	1.18765e+006
4851.75	1.1895e+006
4851.26	1.19356e+006
4850.78	1.19471e+006
4850.3	1.19872e+006
4849.82	1.21175e+006
4849.33	1.22431e+006
4848.85	1.2218e+006
4848.37	1.20847e+006
4847.89	1.20274e+006
4847.41	1.20804e+006
4846.92	1.20841e+006
4846.44	1.19799e+006
4845.96	1.19395e+006
4845.48	1.20842e+006
4844.99	1.22571e+006
4844.51	1.22417e+006
4844.03	1.20881e+006
4843.55	1.20351e+006
4843.06	1.21658e+006
4842.58	1.2319e+006
4842.1	1.23445e+006
4841.62	1.22901e+006
4841.14	1.22777e+006
4840.65	1.23042e+006
4840.17	1.22609e+006
4839.69	1.21252e+006
4839.21	1.20375e+006
4838.72	1.21338e+006
4838.24	1.23466e+006
4837.76	1.24614e+006
4837.28	1.23854e+006
4836.8	1.22577e+006
4836.31	1.22378e+006
4835.83	1.22961e+006
4835.35	1.23202e+006
4834.87	1.23195e+006
4834.38	1.2359e+006
4833.9	1.23689e+006
4833.42	1.22341e+006
4832.94	1.205e+006
4832.45	1.20521e+006
4831.97	1.22545e+006
4831.49	1.2392e+006
4831.01	1.23033e+006
4830.53	1.21509e+006
4830.04	1.21338e+006
4829.56	1.21861e+006
4829.08	1.21385e+006
4828.6	1.20241e+006
4828.11	1.20208e+006
4827.63	1.21778e+006
4827.15	1.23815e+006
4826.67	1.25355e+006
4826.19	1.26128e+006
4825.7	1.25798e+006
4825.22	1.24309e+006
4824.74	1.22766e+006
4824.26	1.22476e+006
4823.77	1.231e+006
4823.29	1.23038e+006
4822.81	1.21779e+006
4822.33	1.20723e+006
4821.84	1.21346e+006
4821.36	1.23276e+006
4820.88	1.246e+006
4820.4	1.23873e+006
4819.92	1.21785e+006
4819.43	1.20798e+006
4818.95	1.22603e+006
4818.47	1.25868e+006
4817.99	1.27432e+006
4817.5	1.26115e+006
4817.02	1.24194e+006
4816.54	1.24313e+006
4816.06	1.26125e+006
4815.57	1.27322e+006
4815.09	1.26996e+006
4814.61	1.26233e+006
4814.13	1.25869e+006
4813.65	1.25555e+006
4813.16	1.25138e+006
4812.68	1.25196e+006
4812.2	1.25667e+006
4811.72	1.25437e+006
4811.23	1.24143e+006
4810.75	1.23193e+006
4810.27	1.23932e+006
4809.79	1.25572e+006
4809.31	1.26191e+006
4808.82	1.25419e+006
4808.34	1.248e+006
4807.86	1.25339e+006
4807.38	1.26029e+006
4806.89	1.25645e+006
4806.41	1.25006e+006
4805.93	1.25928e+006
4805.45	1.28186e+006
4804.96	1.29294e+006
4804.48	1.27946e+006
4804	1.26035e+006
4803.52	1.2595e+006
4803.04	1.27185e+006
4802.55	1.27549e+006
4802.07	1.2688e+006
4801.59	1.27078e+006
4801.11	1.28491e+006
4800.62	1.28884e+006
4800.14	1.26898e+006
4799.66	1.24317e+006
4799.18	1.2352e+006
4798.69	1.24435e+006
4798.21	1.25557e+006
4797.73	1.26448e+006
4797.25	1.27471e+006
4796.77	1.28193e+006
4796.28	1.27986e+006
4795.8	1.27451e+006
4795.32	1.2748e+006
4794.84	1.27571e+006
4794.35	1.26846e+006
4793.87	1.26038e+006
4793.39	1.26421e+006
4792.91	1.272e+006
4792.43	1.26317e+006
4791.94	1.23952e+006
4791.46	1.2285e+006
4790.98	1.24476e+006
4790.5	1.26889e+006
4790.01	1.27472e+006
4789.53	1.26182e+006
4789.05	1.24971e+006
4788.57	1.25281e+006
4788.08	1.27132e+006
4787.6	1.29518e+006
4787.12	1.3075e+006
4786.64	1.29588e+006
4786.16	1.27114e+006
4785.67	1.26224e+006
4785.19	1.28002e+006
4784.71	1.29924e+006
4784.23	1.29308e+006
4783.74	1.27268e+006
4783.26	1.26943e+006
4782.78	1.28615e+006
4782.3	1.29384e+006
4781.82	1.27782e+006
4781.33	1.25826e+006
4780.85	1.25597e+006
4780.37	1.26368e+006
4779.89	1.26717e+006
4779.4	1.27222e+006
4778.92	1.28801e+006
4778.44	1.30077e+006
4777.96	1.2913e+006
4777.47	1.26988e+006
4776.99	1.26468e+006
4776.51	1.27761e+006
4776.03	1.28171e+006
4775.55	1.2675e+006
4775.06	1.26122e+006
4774.58	1.28214e+006
4774.1	1.30837e+006
4773.62	1.30909e+006
4773.13	1.29208e+006
4772.65	1.28951e+006
4772.17	1.30517e+006
4771.69	1.30824e+006
4771.2	1.28328e+006
4770.72	1.25761e+006
4770.24	1.26442e+006
4769.76	1.29778e+006
4769.28	1.3228e+006
4768.79	1.32009e+006
4768.31	1.30176e+006
4767.83	1.28721e+006
4767.35	1.2812e+006
4766.86	1.27943e+006
4766.38	1.28131e+006
4765.9	1.28796e+006
4765.42	1.29451e+006
4764.94	1.29449e+006
4764.45	1.28989e+006
4763.97	1.28905e+006
4763.49	1.29501e+006
4763.01	1.30357e+006
4762.52	1.31323e+006
4762.04	1.32752e+006
4761.56	1.34295e+006
4761.08	1.34464e+006
4760.59	1.32433e+006
4760.11	1.29667e+006
4759.63	1.28517e+006
4759.15	1.29419e+006
4758.67	1.30718e+006
4758.18	1.31214e+006
4757.7	1.31439e+006
4757.22	1.32124e+006
4756.74	1.32866e+006
4756.25	1.33051e+006
4755.77	1.32846e+006
4755.29	1.32439e+006
4754.81	1.31432e+006
4754.33	1.29966e+006
4753.84	1.29327e+006
4753.36	1.30236e+006
4752.88	1.31482e+006
4752.4	1.31592e+006
4751.91	1.30983e+006
4751.43	1.30979e+006
4750.95	1.31518e+006
4750.47	1.31628e+006
4749.98	1.31564e+006
4749.5	1.32405e+006
4749.02	1.33713e+006
4748.54	1.33847e+006
4748.06	1.32896e+006
4747.57	1.33007e+006
4747.09	1.34971e+006
4746.61	1.36571e+006
4746.13	1.35731e+006
4745.64	1.3364e+006
4745.16	1.32981e+006
4744.68	1.34098e+006
4744.2	1.34819e+006
4743.71	1.33727e+006
4743.23	1.31984e+006
4742.75	1.31645e+006
4742.27	1.33184e+006
4741.79	1.35004e+006
4741.3	1.35004e+006
4740.82	1.32721e+006
4740.34	1.30155e+006
4739.86	1.2991e+006
4739.37	1.32149e+006
4738.89	1.34228e+006
4738.41	1.34125e+006
4737.93	1.33145e+006
4737.45	1.3381e+006
4736.96	1.35861e+006
4736.48	1.36488e+006
4736	1.3458e+006
4735.52	1.32493e+006
4735.03	1.32631e+006
4734.55	1.34128e+006
4734.07	1.34554e+006
4733.59	1.33682e+006
4733.1	1.33463e+006
4732.62	1.34686e+006
4732.14	1.35791e+006
4731.66	1.35447e+006
4731.18	1.34569e+006
4730.69	1.34722e+006
4730.21	1.35671e+006
4729.73	1.35853e+006
4729.25	1.34775e+006
4728.76	1.33688e+006
4728.28	1.33832e+006
4727.8	1.34957e+006
4727.32	1.35873e+006
4726.84	1.35859e+006
4726.35	1.35199e+006
4725.87	1.3467e+006
4725.39	1.34804e+006
4724.91	1.35569e+006
4724.42	1.36564e+006
4723.94	1.37381e+006
4723.46	1.37634e+006
4722.98	1.36911e+006
4722.49	1.3531e+006
4722.01	1.34029e+006
4721.53	1.34488e+006
4721.05	1.3642e+006
4720.57	1.37797e+006
4720.08	1.3741e+006
4719.6	1.36472e+006
4719.12	1.36543e+006
4718.64	1.36993e+006
4718.15	1.36365e+006
4717.67	1.35351e+006
4717.19	1.3586e+006
4716.71	1.37378e+006
4716.22	1.37197e+006
4715.74	1.3484e+006
4715.26	1.33214e+006
4714.78	1.34066e+006
4714.3	1.35367e+006
4713.81	1.35271e+006
4713.33	1.35582e+006
4712.85	1.38186e+006
4712.37	1.40676e+006
4711.88	1.39677e+006
4711.4	1.36863e+006
4710.92	1.36897e+006
4710.44	1.39956e+006
4709.96	1.41331e+006
4709.47	1.39047e+006
4708.99	1.36831e+006
4708.51	1.37791e+006
4708.03	1.39799e+006
4707.54	1.39841e+006
4707.06	1.38903e+006
4706.58	1.3912e+006
4706.1	1.39422e+006
4705.61	1.37931e+006
4705.13	1.36137e+006
4704.65	1.36535e+006
4704.17	1.38036e+006
4703.69	1.37949e+006
4703.2	1.3698e+006
4702.72	1.37748e+006
4702.24	1.39403e+006
4701.76	1.38726e+006
4701.27	1.36327e+006
4700.79	1.36524e+006
4700.31	1.40186e+006
4699.83	1.42782e+006
4699.35	1.41371e+006
4698.86	1.3893e+006
4698.38	1.39052e+006
4697.9	1.40363e+006
4697.42	1.39728e+006
4696.93	1.37972e+006
4696.45	1.38351e+006
4695.97	1.40957e+006
4695.49	1.42521e+006
4695	1.41298e+006
4694.52	1.39105e+006
4694.04	1.38348e+006
4693.56	1.39262e+006
4693.08	1.40406e+006
4692.59	1.40466e+006
4692.11	1.39379e+006
4691.63	1.38438e+006
4691.15	1.38981e+006
4690.66	1.40532e+006
4690.18	1.41135e+006
4689.7	1.40029e+006
4689.22	1.38717e+006
4688.73	1.38658e+006
4688.25	1.39417e+006
4687.77	1.40032e+006
4687.29	1.40598e+006
4686.81	1.4125e+006
4686.32	1.41219e+006
4685.84	1.40297e+006
4685.36	1.39661e+006
4684.88	1.39825e+006
4684.39	1.3949e+006
4683.91	1.3804e+006
4683.43	1.37345e+006
4682.95	1.39055e+006
4682.47	1.41709e+006
4681.98	1.42688e+006
4681.5	1.41705e+006
4681.02	1.40276e+006
4680.54	1.3923e+006
4680.05	1.38892e+006
4679.57	1.40118e+006
4679.09	1.42569e+006
4678.61	1.43529e+006
4678.12	1.41324e+006
4677.64	1.38623e+006
4677.16	1.39122e+006
4676.68	1.42031e+006
4676.2	1.43337e+006
4675.71	1.41881e+006
4675.23	1.40427e+006
4674.75	1.40717e+006
4674.27	1.4122e+006
4673.78	1.40466e+006
4673.3	1.39307e+006
4672.82	1.38736e+006
4672.34	1.38242e+006
4671.86	1.37593e+006
4671.37	1.37953e+006
4670.89	1.39942e+006
4670.41	1.42418e+006
4669.93	1.44165e+006
4669.44	1.45206e+006
4668.96	1.45714e+006
4668.48	1.45283e+006
4668	1.44068e+006
4667.51	1.43168e+006
4667.03	1.43118e+006
4666.55	1.43227e+006
4666.07	1.42912e+006
4665.59	1.42532e+006
4665.1	1.42537e+006
4664.62	1.42804e+006
4664.14	1.43014e+006
4663.66	1.42818e+006
4663.17	1.41868e+006
4662.69	1.4063e+006
4662.21	1.40649e+006
4661.73	1.42722e+006
4661.24	1.45466e+006
4660.76	1.46982e+006
4660.28	1.47085e+006
4659.8	1.46409e+006
4659.32	1.44628e+006
4658.83	1.41763e+006
4658.35	1.40087e+006
4657.87	1.41906e+006
4657.39	1.45863e+006
4656.9	1.48069e+006
4656.42	1.46812e+006
4655.94	1.43968e+006
4655.46	1.42142e+006
4654.98	1.42553e+006
4654.49	1.44995e+006
4654.01	1.47475e+006
4653.53	1.46936e+006
4653.05	1.43134e+006
4652.56	1.40562e+006
4652.08	1.43038e+006
4651.6	1.47617e+006
4651.12	1.48276e+006
4650.63	1.44858e+006
4650.15	1.4301e+006
4649.67	1.45024e+006
4649.19	1.46685e+006
4648.71	1.45013e+006
4648.22	1.43307e+006
4647.74	1.45093e+006
4647.26	1.47856e+006
4646.78	1.47209e+006
4646.29	1.43928e+006
4645.81	1.42218e+006
4645.33	1.43118e+006
4644.85	1.44042e+006
4644.37	1.43699e+006
4643.88	1.43405e+006
4643.4	1.43914e+006
4642.92	1.44434e+006
4642.44	1.44813e+006
4641.95	1.45784e+006
4641.47	1.46777e+006
4640.99	1.46053e+006
4640.51	1.4354e+006
4640.02	1.41411e+006
4639.54	1.41261e+006
4639.06	1.4242e+006
4638.58	1.43663e+006
4638.1	1.4488e+006
4637.61	1.46155e+006
4637.13	1.46629e+006
4636.65	1.45597e+006
4636.17	1.4403e+006
4635.68	1.43643e+006
4635.2	1.44668e+006
4634.72	1.45707e+006
4634.24	1.45889e+006
4633.75	1.45921e+006
4633.27	1.46468e+006
4632.79	1.4677e+006
4632.31	1.4611e+006
4631.83	1.45612e+006
4631.34	1.46729e+006
4630.86	1.4844e+006
4630.38	1.48254e+006
4629.9	1.46105e+006
4629.41	1.44735e+006
4628.93	1.45448e+006
4628.45	1.46109e+006
4627.97	1.44878e+006
4627.49	1.43452e+006
4627	1.44332e+006
4626.52	1.46738e+006
4626.04	1.47849e+006
4625.56	1.47023e+006
4625.07	1.46191e+006
4624.59	1.46635e+006
4624.11	1.47581e+006
4623.63	1.47834e+006
4623.14	1.47147e+006
4622.66	1.46142e+006
4622.18	1.45972e+006
4621.7	1.47435e+006
4621.22	1.49527e+006
4620.73	1.49949e+006
4620.25	1.47996e+006
4619.77	1.45641e+006
4619.29	1.4482e+006
4618.8	1.45378e+006
4618.32	1.46635e+006
4617.84	1.48608e+006
4617.36	1.50301e+006
4616.88	1.49552e+006
4616.39	1.46545e+006
4615.91	1.44652e+006
4615.43	1.45477e+006
4614.95	1.46219e+006
4614.46	1.44767e+006
4613.98	1.43908e+006
4613.5	1.46602e+006
4613.02	1.503e+006
4612.53	1.50713e+006
4612.05	1.48606e+006
4611.57	1.47721e+006
4611.09	1.48113e+006
4610.61	1.4721e+006
4610.12	1.45805e+006
4609.64	1.46865e+006
4609.16	1.49258e+006
4608.68	1.49021e+006
4608.19	1.46668e+006
4607.71	1.4675e+006
4607.23	1.49638e+006
4606.75	1.50402e+006
4606.26	1.47366e+006
4605.78	1.45259e+006
4605.3	1.47293e+006
4604.82	1.5004e+006
4604.34	1.49523e+006
4603.85	1.47262e+006
4603.37	1.46442e+006
4602.89	1.4645e+006
4602.41	1.45436e+006
4601.92	1.44792e+006
4601.44	1.46663e+006
4600.96	1.49533e+006
4600.48	1.50436e+006
4600	1.49706e+006
4599.51	1.49728e+006
4599.03	1.50408e+006
4598.55	1.49652e+006
4598.07	1.47541e+006
4597.58	1.46529e+006
4597.1	1.47639e+006
4596.62	1.49315e+006
4596.14	1.50151e+006
4595.65	1.50355e+006
4595.17	1.50256e+006
4594.69	1.49528e+006
4594.21	1.4847e+006
4593.73	1.483e+006
4593.24	1.49327e+006
4592.76	1.50101e+006
4592.28	1.49373e+006
4591.8	1.48134e+006
4591.31	1.48467e+006
4590.83	1.50561e+006
4590.35	1.52145e+006
4589.87	1.51498e+006
4589.39	1.49932e+006
4588.9	1.49894e+006
4588.42	1.51205e+006
4587.94	1.51208e+006
4587.46	1.48924e+006
4586.97	1.46905e+006
4586.49	1.47744e+006
4586.01	1.50489e+006
4585.53	1.52135e+006
4585.04	1.51498e+006
4584.56	1.49981e+006
4584.08	1.49269e+006
4583.6	1.4975e+006
4583.12	1.50731e+006
4582.63	1.51203e+006
4582.15	1.50804e+006
4581.67	1.50422e+006
4581.19	1.50958e+006
4580.7	1.51548e+006
4580.22	1.50715e+006
4579.74	1.49328e+006
4579.26	1.49857e+006
4578.77	1.52232e+006
4578.29	1.53556e+006
4577.81	1.52924e+006
4577.33	1.52912e+006
4576.85	1.54586e+006
4576.36	1.54993e+006
4575.88	1.52347e+006
4575.4	1.49779e+006
4574.92	1.50308e+006
4574.43	1.51609e+006
4573.95	1.50181e+006
4573.47	1.47714e+006
4572.99	1.48318e+006
4572.51	1.51566e+006
4572.02	1.53474e+006
4571.54	1.52998e+006
4571.06	1.52525e+006
4570.58	1.52817e+006
4570.09	1.52367e+006
4569.61	1.51284e+006
4569.13	1.51275e+006
4568.65	1.52105e+006
4568.16	1.52265e+006
4567.68	1.52464e+006
4567.2	1.54091e+006
4566.72	1.55172e+006
4566.24	1.52895e+006
4565.75	1.49504e+006
4565.27	1.50015e+006
4564.79	1.54021e+006
4564.31	1.5571e+006
4563.82	1.52921e+006
4563.34	1.50213e+006
4562.86	1.51146e+006
4562.38	1.53245e+006
4561.9	1.53359e+006
4561.41	1.52896e+006
4560.93	1.54262e+006
4560.45	1.56179e+006
4559.97	1.563e+006
4559.48	1.55384e+006
4559	1.55348e+006
4558.52	1.55598e+006
4558.04	1.54569e+006
4557.55	1.52985e+006
4557.07	1.5261e+006
4556.59	1.53229e+006
4556.11	1.53459e+006
4555.63	1.53314e+006
4555.14	1.53697e+006
4554.66	1.54381e+006
4554.18	1.54432e+006
4553.7	1.53828e+006
4553.21	1.53213e+006
4552.73	1.52895e+006
4552.25	1.53032e+006
4551.77	1.53601e+006
4551.28	1.53546e+006
4550.8	1.51722e+006
4550.32	1.4943e+006
4549.84	1.49758e+006
4549.36	1.53228e+006
4548.87	1.56482e+006
4548.39	1.5682e+006
4547.91	1.55558e+006
4547.43	1.54954e+006
4546.94	1.54511e+006
4546.46	1.53167e+006
4545.98	1.52704e+006
4545.5	1.55153e+006
4545.02	1.58256e+006
4544.53	1.5784e+006
4544.05	1.54447e+006
4543.57	1.53232e+006
4543.09	1.56336e+006
4542.6	1.59452e+006
4542.12	1.58139e+006
4541.64	1.54285e+006
4541.16	1.53068e+006
4540.67	1.55521e+006
4540.19	1.57851e+006
4539.71	1.57615e+006
4539.23	1.5683e+006
4538.75	1.57893e+006
4538.26	1.59388e+006
4537.78	1.58258e+006
4537.3	1.54709e+006
4536.82	1.52411e+006
4536.33	1.53799e+006
4535.85	1.57056e+006
4535.37	1.58542e+006
4534.89	1.5714e+006
4534.41	1.55187e+006
4533.92	1.55338e+006
4533.44	1.57464e+006
4532.96	1.59151e+006
4532.48	1.58908e+006
4531.99	1.57915e+006
4531.51	1.5808e+006
4531.03	1.5918e+006
4530.55	1.59259e+006
4530.06	1.57686e+006
4529.58	1.56224e+006
4529.1	1.56514e+006
4528.62	1.57899e+006
4528.14	1.58746e+006
4527.65	1.58731e+006
4527.17	1.58585e+006
4526.69	1.58479e+006
4526.21	1.58057e+006
4525.72	1.57521e+006
4525.24	1.57372e+006
4524.76	1.57431e+006
4524.28	1.57208e+006
4523.79	1.5686e+006
4523.31	1.5678e+006
4522.83	1.56721e+006
4522.35	1.56335e+006
4521.87	1.56041e+006
4521.38	1.56341e+006
4520.9	1.56851e+006
4520.42	1.57032e+006
4519.94	1.57169e+006
4519.45	1.57575e+006
4518.97	1.57664e+006
4518.49	1.5704e+006
4518.01	1.566e+006
4517.53	1.57189e+006
4517.04	1.58037e+006
4516.56	1.58013e+006
4516.08	1.57492e+006
4515.6	1.57399e+006
4515.11	1.57441e+006
4514.63	1.57124e+006
4514.15	1.57495e+006
4513.67	1.59584e+006
4513.18	1.6187e+006
4512.7	1.61834e+006
4512.22	1.5978e+006
4511.74	1.5862e+006
4511.26	1.59662e+006
4510.77	1.6093e+006
4510.29	1.60273e+006
4509.81	1.58177e+006
4509.33	1.56583e+006
4508.84	1.56302e+006
4508.36	1.56667e+006
4507.88	1.5703e+006
4507.4	1.57661e+006
4506.92	1.58999e+006
4506.43	1.60407e+006
4505.95	1.60481e+006
4505.47	1.59182e+006
4504.99	1.5866e+006
4504.5	1.60391e+006
4504.02	1.62383e+006
4503.54	1.6169e+006
4503.06	1.59157e+006
4502.57	1.58374e+006
4502.09	1.59896e+006
4501.61	1.60503e+006
4501.13	1.58968e+006
4500.65	1.58046e+006
4500.16	1.59057e+006
4499.68	1.59356e+006
4499.2	1.57805e+006
4498.72	1.57785e+006
4498.23	1.61041e+006
4497.75	1.63372e+006
4497.27	1.61203e+006
4496.79	1.58126e+006
4496.3	1.59264e+006
4495.82	1.6277e+006
4495.34	1.63201e+006
4494.86	1.6054e+006
4494.38	1.59186e+006
4493.89	1.59925e+006
4493.41	1.59741e+006
4492.93	1.58486e+006
4492.45	1.59024e+006
4491.96	1.61136e+006
4491.48	1.61667e+006
4491	1.60619e+006
4490.52	1.61002e+006
4490.04	1.62693e+006
4489.55	1.6266e+006
4489.07	1.61364e+006
4488.59	1.6238e+006
4488.11	1.65073e+006
4487.62	1.64601e+006
4487.14	1.60578e+006
4486.66	1.58748e+006
4486.18	1.61661e+006
4485.69	1.64387e+006
4485.21	1.62866e+006
4484.73	1.6044e+006
4484.25	1.61743e+006
4483.77	1.65057e+006
4483.28	1.65657e+006
4482.8	1.6325e+006
4482.32	1.61355e+006
4481.84	1.61571e+006
4481.35	1.62596e+006
4480.87	1.63488e+006
4480.39	1.64395e+006
4479.91	1.64883e+006
4479.43	1.64193e+006
4478.94	1.62786e+006
4478.46	1.61975e+006
4477.98	1.62431e+006
4477.5	1.63773e+006
4477.01	1.64774e+006
4476.53	1.63894e+006
4476.05	1.61114e+006
4475.57	1.59065e+006
4475.08	1.6015e+006
4474.6	1.62751e+006
4474.12	1.63086e+006
4473.64	1.60972e+006
4473.16	1.60342e+006
4472.67	1.63153e+006
4472.19	1.66261e+006
4471.71	1.6607e+006
4471.23	1.63423e+006
4470.74	1.61721e+006
4470.26	1.62343e+006
4469.78	1.64047e+006
4469.3	1.65361e+006
4468.81	1.65648e+006
4468.33	1.64863e+006
4467.85	1.6377e+006
4467.37	1.63634e+006
4466.89	1.64701e+006
4466.4	1.65676e+006
4465.92	1.65363e+006
4465.44	1.64037e+006
4464.96	1.62805e+006
4464.47	1.62422e+006
4463.99	1.62958e+006
4463.51	1.63851e+006
4463.03	1.64195e+006
4462.55	1.63714e+006
4462.06	1.63281e+006
4461.58	1.63756e+006
4461.1	1.64798e+006
4460.62	1.65572e+006
4460.13	1.65863e+006
4459.65	1.65598e+006
4459.17	1.64398e+006
4458.69	1.62781e+006
4458.2	1.62524e+006
4457.72	1.64257e+006
4457.24	1.65994e+006
4456.76	1.65827e+006
4456.28	1.64829e+006
4455.79	1.65142e+006
4455.31	1.66364e+006
4454.83	1.66317e+006
4454.35	1.647e+006
4453.86	1.63473e+006
4453.38	1.63812e+006
4452.9	1.6489e+006
4452.42	1.65716e+006
4451.94	1.66341e+006
4451.45	1.67017e+006
4450.97	1.67578e+006
4450.49	1.67837e+006
4450.01	1.67759e+006
4449.52	1.67296e+006
4449.04	1.66593e+006
4448.56	1.65995e+006
4448.08	1.65614e+006
4447.59	1.65516e+006
4447.11	1.66126e+006
4446.63	1.6727e+006
4446.15	1.67352e+006
4445.67	1.65437e+006
4445.18	1.63628e+006
4444.7	1.6464e+006
4444.22	1.67327e+006
4443.74	1.6802e+006
4443.25	1.66367e+006
4442.77	1.65767e+006
4442.29	1.67324e+006
4441.81	1.67954e+006
4441.32	1.66071e+006
4440.84	1.64566e+006
4440.36	1.6577e+006
4439.88	1.67688e+006
4439.4	1.67936e+006
4438.91	1.67506e+006
4438.43	1.67749e+006
4437.95	1.67389e+006
4437.47	1.65552e+006
4436.98	1.64245e+006
4436.5	1.64916e+006
4436.02	1.6594e+006
4435.54	1.66099e+006
4435.06	1.66813e+006
4434.57	1.68385e+006
4434.09	1.68382e+006
4433.61	1.66557e+006
4433.13	1.66605e+006
4432.64	1.69677e+006
4432.16	1.7123e+006
4431.68	1.68319e+006
4431.2	1.64868e+006
4430.71	1.65127e+006
4430.23	1.67079e+006
4429.75	1.67478e+006
4429.27	1.68168e+006
4428.79	1.71343e+006
4428.3	1.73508e+006
4427.82	1.71046e+006
4427.34	1.67507e+006
4426.86	1.68057e+006
4426.37	1.70435e+006
4425.89	1.69249e+006
4425.41	1.66042e+006
4424.93	1.66589e+006
4424.45	1.70262e+006
4423.96	1.70862e+006
4423.48	1.67327e+006
4423	1.65305e+006
4422.52	1.67685e+006
4422.03	1.71016e+006
4421.55	1.72294e+006
4421.07	1.72668e+006
4420.59	1.73126e+006
4420.1	1.72275e+006
4419.62	1.69888e+006
4419.14	1.68054e+006
4418.66	1.67841e+006
4418.18	1.68535e+006
4417.69	1.69994e+006
4417.21	1.71962e+006
4416.73	1.72121e+006
4416.25	1.69196e+006
4415.76	1.66582e+006
4415.28	1.67978e+006
4414.8	1.71078e+006
4414.32	1.71064e+006
4413.83	1.68642e+006
4413.35	1.68267e+006
4412.87	1.69874e+006
4412.39	1.69586e+006
4411.91	1.68002e+006
4411.42	1.6987e+006
4410.94	1.74922e+006
4410.46	1.76888e+006
4409.98	1.73475e+006
4409.49	1.69991e+006
4409.01	1.70451e+006
4408.53	1.7192e+006
4408.05	1.71002e+006
4407.57	1.69711e+006
4407.08	1.70708e+006
4406.6	1.71938e+006
4406.12	1.70668e+006
4405.64	1.68879e+006
4405.15	1.69968e+006
4404.67	1.72858e+006
4404.19	1.73733e+006
4403.71	1.7183e+006
4403.22	1.69792e+006
4402.74	1.69375e+006
4402.26	1.69927e+006
4401.78	1.70505e+006
4401.3	1.70945e+006
4400.81	1.7098e+006
4400.33	1.70193e+006
4399.85	1.69166e+006
4399.37	1.69546e+006
4398.88	1.72284e+006
4398.4	1.75823e+006
4397.92	1.76779e+006
4397.44	1.73641e+006
4396.96	1.69604e+006
4396.47	1.69511e+006
4395.99	1.73304e+006
4395.51	1.75481e+006
4395.03	1.72838e+006
4394.54	1.69364e+006
4394.06	1.70151e+006
4393.58	1.73544e+006
4393.1	1.74098e+006
4392.61	1.71326e+006
4392.13	1.69978e+006
4391.65	1.72154e+006
4391.17	1.74649e+006
4390.69	1.74819e+006
4390.2	1.74155e+006
4389.72	1.74515e+006
4389.24	1.74992e+006
4388.76	1.7446e+006
4388.27	1.73907e+006
4387.79	1.74322e+006
4387.31	1.74873e+006
4386.83	1.7478e+006
4386.34	1.74712e+006
4385.86	1.75059e+006
4385.38	1.74953e+006
4384.9	1.74108e+006
4384.42	1.73567e+006
4383.93	1.73699e+006
4383.45	1.73567e+006
4382.97	1.73094e+006
4382.49	1.73605e+006
4382	1.75239e+006
4381.52	1.76109e+006
4381.04	1.75258e+006
4380.56	1.74324e+006
4380.08	1.74827e+006
4379.59	1.75656e+006
4379.11	1.74926e+006
4378.63	1.72925e+006
4378.15	1.71599e+006
4377.66	1.71993e+006
4377.18	1.73519e+006
4376.7	1.7504e+006
4376.22	1.75614e+006
4375.73	1.74821e+006
4375.25	1.73366e+006
4374.77	1.72833e+006
4374.29	1.73922e+006
4373.81	1.75338e+006
4373.32	1.75302e+006
4372.84	1.73929e+006
4372.36	1.73122e+006
4371.88	1.74001e+006
4371.39	1.7536e+006
4370.91	1.7535e+006
4370.43	1.74091e+006
4369.95	1.73428e+006
4369.46	1.74077e+006
4368.98	1.74602e+006
4368.5	1.74e+006
4368.02	1.73685e+006
4367.54	1.75153e+006
4367.05	1.76972e+006
4366.57	1.76623e+006
4366.09	1.74634e+006
4365.61	1.7391e+006
4365.12	1.74951e+006
4364.64	1.75106e+006
4364.16	1.73427e+006
4363.68	1.72791e+006
4363.2	1.75207e+006
4362.71	1.78019e+006
4362.23	1.7752e+006
4361.75	1.74297e+006
4361.27	1.72068e+006
4360.78	1.72496e+006
4360.3	1.74029e+006
4359.82	1.75139e+006
4359.34	1.75974e+006
4358.85	1.76843e+006
4358.37	1.77309e+006
4357.89	1.77173e+006
4357.41	1.76796e+006
4356.93	1.76143e+006
4356.44	1.74734e+006
4355.96	1.72847e+006
4355.48	1.71791e+006
4355	1.72538e+006
4354.51	1.7451e+006
4354.03	1.76067e+006
4353.55	1.76246e+006
4353.07	1.75901e+006
4352.59	1.76604e+006
4352.1	1.78272e+006
4351.62	1.78929e+006
4351.14	1.77639e+006
4350.66	1.76313e+006
4350.17	1.76974e+006
4349.69	1.78542e+006
4349.21	1.78682e+006
4348.73	1.77696e+006
4348.24	1.77521e+006
4347.76	1.77677e+006
4347.28	1.76104e+006
4346.8	1.73897e+006
4346.32	1.74747e+006
4345.83	1.78668e+006
4345.35	1.80829e+006
4344.87	1.78602e+006
4344.39	1.7554e+006
4343.9	1.75683e+006
4343.42	1.77786e+006
4342.94	1.78502e+006
4342.46	1.7785e+006
4341.97	1.77641e+006
4341.49	1.77316e+006
4341.01	1.75613e+006
4340.53	1.74283e+006
4340.05	1.7575e+006
4339.56	1.78578e+006
4339.08	1.79515e+006
4338.6	1.78843e+006
4338.12	1.793e+006
4337.63	1.80612e+006
4337.15	1.79886e+006
4336.67	1.77302e+006
4336.19	1.76501e+006
4335.71	1.78505e+006
4335.22	1.79904e+006
4334.74	1.78614e+006
4334.26	1.77163e+006
4333.78	1.78081e+006
4333.29	1.7977e+006
4332.81	1.7978e+006
4332.33	1.79102e+006
4331.85	1.79922e+006
4331.36	1.81345e+006
4330.88	1.808e+006
4330.4	1.78343e+006
4329.92	1.76377e+006
4329.44	1.75975e+006
4328.95	1.76428e+006
4328.47	1.77673e+006
4327.99	1.79947e+006
4327.51	1.8141e+006
4327.02	1.79694e+006
4326.54	1.76188e+006
4326.06	1.75233e+006
4325.58	1.77916e+006
4325.1	1.8021e+006
4324.61	1.79144e+006
4324.13	1.77321e+006
4323.65	1.78327e+006
4323.17	1.80666e+006
4322.68	1.80403e+006
4322.2	1.77895e+006
4321.72	1.77109e+006
4321.24	1.78871e+006
4320.75	1.7977e+006
4320.27	1.78304e+006
4319.79	1.77263e+006
4319.31	1.78396e+006
4318.83	1.79223e+006
4318.34	1.77721e+006
4317.86	1.76179e+006
4317.38	1.77159e+006
4316.9	1.78983e+006
4316.41	1.79006e+006
4315.93	1.78488e+006
4315.45	1.79873e+006
4314.97	1.81524e+006
4314.48	1.80144e+006
4314	1.77096e+006
4313.52	1.77002e+006
4313.04	1.80244e+006
4312.56	1.82208e+006
4312.07	1.80819e+006
4311.59	1.79661e+006
4311.11	1.81596e+006
4310.63	1.83877e+006
4310.14	1.82764e+006
4309.66	1.79645e+006
4309.18	1.7881e+006
4308.7	1.81064e+006
4308.22	1.83071e+006
4307.73	1.82345e+006
4307.25	1.80067e+006
4306.77	1.78863e+006
4306.29	1.79707e+006
4305.8	1.81318e+006
4305.32	1.81652e+006
4304.84	1.80012e+006
4304.36	1.78063e+006
4303.87	1.78151e+006
4303.39	1.80317e+006
4302.91	1.8207e+006
4302.43	1.8167e+006
4301.95	1.80268e+006
4301.46	1.79862e+006
4300.98	1.80541e+006
4300.5	1.81103e+006
4300.02	1.81226e+006
4299.53	1.81368e+006
4299.05	1.81271e+006
4298.57	1.80346e+006
4298.09	1.79296e+006
4297.61	1.79698e+006
4297.12	1.81743e+006
4296.64	1.83643e+006
4296.16	1.8366e+006
4295.68	1.81938e+006
4295.19	1.80043e+006
4294.71	1.79311e+006
4294.23	1.7986e+006
4293.75	1.80728e+006
4293.26	1.80792e+006
4292.78	1.79937e+006
4292.3	1.79383e+006
4291.82	1.8046e+006
4291.34	1.82936e+006
4290.85	1.84978e+006
4290.37	1.85072e+006
4289.89	1.83691e+006
4289.41	1.82675e+006
4288.92	1.83006e+006
4288.44	1.83706e+006
4287.96	1.83256e+006
4287.48	1.81722e+006
4286.99	1.80778e+006
4286.51	1.81574e+006
4286.03	1.83306e+006
4285.55	1.84284e+006
4285.07	1.83869e+006
4284.58	1.82835e+006
4284.1	1.82273e+006
4283.62	1.82684e+006
4283.14	1.83799e+006
4282.65	1.84675e+006
4282.17	1.84315e+006
4281.69	1.82816e+006
4281.21	1.81567e+006
4280.73	1.8168e+006
4280.24	1.82633e+006
4279.76	1.83199e+006
4279.28	1.83168e+006
4278.8	1.83165e+006
4278.31	1.83283e+006
4277.83	1.83219e+006
4277.35	1.83447e+006
4276.87	1.84658e+006
4276.38	1.86043e+006
4275.9	1.85871e+006
4275.42	1.84178e+006
4274.94	1.83089e+006
4274.46	1.83683e+006
4273.97	1.84314e+006
4273.49	1.83286e+006
4273.01	1.81643e+006
4272.53	1.81575e+006
4272.04	1.83201e+006
4271.56	1.84807e+006
4271.08	1.85499e+006
4270.6	1.85615e+006
4270.12	1.85014e+006
4269.63	1.83257e+006
4269.15	1.81498e+006
4268.67	1.81819e+006
4268.19	1.84056e+006
4267.7	1.85453e+006
4267.22	1.8451e+006
4266.74	1.83181e+006
4266.26	1.8378e+006
4265.77	1.8544e+006
4265.29	1.85616e+006
4264.81	1.83959e+006
4264.33	1.82508e+006
4263.85	1.82537e+006
4263.36	1.83298e+006
4262.88	1.83826e+006
4262.4	1.84116e+006
4261.92	1.84303e+006
4261.43	1.84267e+006
4260.95	1.84353e+006
4260.47	1.85035e+006
4259.99	1.85658e+006
4259.5	1.8504e+006
4259.02	1.8362e+006
4258.54	1.83197e+006
4258.06	1.83969e+006
4257.58	1.83868e+006
4257.09	1.82045e+006
4256.61	1.81054e+006
4256.13	1.83443e+006
4255.65	1.87439e+006
4255.16	1.88626e+006
4254.68	1.85748e+006
4254.2	1.82452e+006
4253.72	1.82588e+006
4253.24	1.85685e+006
4252.75	1.88292e+006
4252.27	1.88489e+006
4251.79	1.87483e+006
4251.31	1.87113e+006
4250.82	1.87362e+006
4250.34	1.86902e+006
4249.86	1.85296e+006
4249.38	1.83798e+006
4248.89	1.83957e+006
4248.41	1.85853e+006
4247.93	1.87907e+006
4247.45	1.88348e+006
4246.97	1.86896e+006
4246.48	1.85047e+006
4246	1.8459e+006
4245.52	1.8569e+006
4245.04	1.86711e+006
4244.55	1.86298e+006
4244.07	1.85229e+006
4243.59	1.85369e+006
4243.11	1.86978e+006
4242.63	1.88275e+006
4242.14	1.87929e+006
4241.66	1.86646e+006
4241.18	1.85624e+006
4240.7	1.8485e+006
4240.21	1.84007e+006
4239.73	1.83715e+006
4239.25	1.84265e+006
4238.77	1.84301e+006
4238.28	1.82775e+006
4237.8	1.81405e+006
4237.32	1.82792e+006
4236.84	1.864e+006
4236.36	1.889e+006
4235.87	1.88667e+006
4235.39	1.87431e+006
4234.91	1.86926e+006
4234.43	1.86559e+006
4233.94	1.85576e+006
4233.46	1.85065e+006
4232.98	1.85956e+006
4232.5	1.8689e+006
4232.01	1.86262e+006
4231.53	1.85069e+006
4231.05	1.85465e+006
4230.57	1.87218e+006
4230.09	1.87876e+006
4229.6	1.86383e+006
4229.12	1.84584e+006
4228.64	1.84663e+006
4228.16	1.86491e+006
4227.67	1.88176e+006
4227.19	1.88374e+006
4226.71	1.87428e+006
4226.23	1.8661e+006
4225.75	1.86711e+006
4225.26	1.87367e+006
4224.78	1.87627e+006
4224.3	1.8709e+006
4223.82	1.86333e+006
4223.33	1.86264e+006
4222.85	1.87258e+006
4222.37	1.88788e+006
4221.89	1.89661e+006
4221.4	1.88936e+006
4220.92	1.87109e+006
4220.44	1.85986e+006
4219.96	1.86634e+006
4219.48	1.87881e+006
4218.99	1.87864e+006
4218.51	1.86729e+006
4218.03	1.86411e+006
4217.55	1.8776e+006
4217.06	1.8946e+006
4216.58	1.90109e+006
4216.1	1.89856e+006
4215.62	1.89377e+006
4215.14	1.88688e+006
4214.65	1.87867e+006
4214.17	1.87694e+006
4213.69	1.88517e+006
4213.21	1.89452e+006
4212.72	1.89741e+006
4212.24	1.89974e+006
4211.76	1.90805e+006
4211.28	1.91298e+006
4210.79	1.90029e+006
4210.31	1.87496e+006
4209.83	1.85948e+006
4209.35	1.86581e+006
4208.87	1.88041e+006
4208.38	1.88268e+006
4207.9	1.87057e+006
4207.42	1.86016e+006
4206.94	1.86267e+006
4206.45	1.87109e+006
4205.97	1.87288e+006
4205.49	1.86769e+006
4205.01	1.86397e+006
4204.52	1.86332e+006
4204.04	1.86167e+006
4203.56	1.86413e+006
4203.08	1.88036e+006
4202.6	1.90084e+006
4202.11	1.89936e+006
4201.63	1.8719e+006
4201.15	1.8519e+006
4200.67	1.86566e+006
4200.18	1.89137e+006
4199.7	1.89102e+006
4199.22	1.86949e+006
4198.74	1.86574e+006
4198.26	1.88912e+006
4197.77	1.90438e+006
4197.29	1.88836e+006
4196.81	1.86496e+006
4196.33	1.8655e+006
4195.84	1.88372e+006
4195.36	1.89328e+006
4194.88	1.88898e+006
4194.4	1.88577e+006
4193.91	1.89017e+006
4193.43	1.89578e+006
4192.95	1.89992e+006
4192.47	1.90536e+006
4191.99	1.90929e+006
4191.5	1.90562e+006
4191.02	1.89613e+006
4190.54	1.88868e+006
4190.06	1.88656e+006
4189.57	1.88747e+006
4189.09	1.88882e+006
4188.61	1.88876e+006
4188.13	1.88692e+006
4187.65	1.88743e+006
4187.16	1.89336e+006
4186.68	1.89701e+006
4186.2	1.88796e+006
4185.72	1.87324e+006
4185.23	1.87272e+006
4184.75	1.88859e+006
4184.27	1.89879e+006
4183.79	1.89194e+006
4183.3	1.88807e+006
4182.82	1.90594e+006
4182.34	1.92731e+006
4181.86	1.91939e+006
4181.38	1.88427e+006
4180.89	1.85915e+006
4180.41	1.86721e+006
4179.93	1.89124e+006
4179.45	1.90184e+006
4178.96	1.89355e+006
4178.48	1.88314e+006
4178	1.88334e+006
4177.52	1.89025e+006
4177.03	1.89425e+006
4176.55	1.89447e+006
4176.07	1.898e+006
4175.59	1.90631e+006
4175.11	1.90951e+006
4174.62	1.90028e+006
4174.14	1.88749e+006
4173.66	1.88463e+006
4173.18	1.88823e+006
4172.69	1.8839e+006
4172.21	1.87349e+006
4171.73	1.87548e+006
4171.25	1.89296e+006
4170.77	1.90479e+006
4170.28	1.90006e+006
4169.8	1.89698e+006
4169.32	1.90943e+006
4168.84	1.91889e+006
4168.35	1.90555e+006
4167.87	1.88622e+006
4167.39	1.88806e+006
4166.91	1.9004e+006
4166.42	1.89258e+006
4165.94	1.87118e+006
4165.46	1.87427e+006
4164.98	1.90645e+006
4164.5	1.92617e+006
4164.01	1.9114e+006
4163.53	1.89396e+006
4163.05	1.90534e+006
4162.57	1.92836e+006
4162.08	1.93384e+006
4161.6	1.93075e+006
4161.12	1.94009e+006
4160.64	1.9456e+006
4160.16	1.91785e+006
4159.67	1.87352e+006
4159.19	1.86152e+006
4158.71	1.89157e+006
4158.23	1.92245e+006
4157.74	1.92674e+006
4157.26	1.92374e+006
4156.78	1.93438e+006
4156.3	1.94386e+006
4155.81	1.93201e+006
4155.33	1.90936e+006
4154.85	1.89791e+006
4154.37	1.9003e+006
4153.89	1.91107e+006
4153.4	1.93435e+006
4152.92	1.96406e+006
4152.44	1.96991e+006
4151.96	1.93626e+006
4151.47	1.89749e+006
4150.99	1.89805e+006
4150.51	1.92876e+006
4150.03	1.94224e+006
4149.54	1.92598e+006
4149.06	1.91614e+006
4148.58	1.93331e+006
4148.1	1.9494e+006
4147.62	1.93759e+006
4147.13	1.91662e+006
4146.65	1.91704e+006
4146.17	1.93149e+006
4145.69	1.93275e+006
4145.2	1.92242e+006
4144.72	1.9248e+006
4144.24	1.9408e+006
4143.76	1.94435e+006
4143.28	1.92653e+006
4142.79	1.91062e+006
4142.31	1.91412e+006
4141.83	1.92388e+006
4141.35	1.9234e+006
4140.86	1.92067e+006
4140.38	1.92879e+006
4139.9	1.93683e+006
4139.42	1.92568e+006
4138.93	1.90362e+006
4138.45	1.89911e+006
4137.97	1.918e+006
4137.49	1.93307e+006
4137.01	1.92418e+006
4136.52	1.90747e+006
4136.04	1.90995e+006
4135.56	1.92967e+006
4135.08	1.94033e+006
4134.59	1.92911e+006
4134.11	1.91175e+006
4133.63	1.9084e+006
4133.15	1.91881e+006
4132.67	1.92632e+006
4132.18	1.91857e+006
4131.7	1.89992e+006
4131.22	1.88777e+006
4130.74	1.89701e+006
4130.25	1.9228e+006
4129.77	1.94067e+006
4129.29	1.93161e+006
4128.81	1.90634e+006
4128.32	1.89487e+006
4127.84	1.91133e+006
4127.36	1.94016e+006
4126.88	1.95917e+006
4126.4	1.96291e+006
4125.91	1.95704e+006
4125.43	1.94332e+006
4124.95	1.92279e+006
4124.47	1.9057e+006
4123.98	1.90339e+006
4123.5	1.91263e+006
4123.02	1.92005e+006
4122.54	1.92145e+006
4122.05	1.92498e+006
4121.57	1.93363e+006
4121.09	1.93675e+006
4120.61	1.92524e+006
4120.13	1.90732e+006
4119.64	1.90021e+006
4119.16	1.9092e+006
4118.68	1.92233e+006
4118.2	1.92547e+006
4117.71	1.91769e+006
4117.23	1.9105e+006
4116.75	1.91584e+006
4116.27	1.93483e+006
4115.79	1.95498e+006
4115.3	1.95903e+006
4114.82	1.94261e+006
4114.34	1.92364e+006
4113.86	1.92539e+006
4113.37	1.94653e+006
4112.89	1.95851e+006
4112.41	1.94134e+006
4111.93	1.91109e+006
4111.44	1.89807e+006
4110.96	1.90749e+006
4110.48	1.92123e+006
4110	1.93082e+006
4109.52	1.94211e+006
4109.03	1.94898e+006
4108.55	1.93533e+006
4108.07	1.91089e+006
4107.59	1.90981e+006
4107.1	1.93625e+006
4106.62	1.9473e+006
4106.14	1.91842e+006
4105.66	1.89184e+006
4105.18	1.91745e+006
4104.69	1.97009e+006
4104.21	1.98017e+006
4103.73	1.93781e+006
4103.25	1.9086e+006
4102.76	1.93615e+006
4102.28	1.98253e+006
4101.8	1.99046e+006
4101.32	1.96243e+006
4100.83	1.94322e+006
4100.35	1.95136e+006
4099.87	1.96574e+006
4099.39	1.96751e+006
4098.91	1.96191e+006
4098.42	1.95888e+006
4097.94	1.95596e+006
4097.46	1.94678e+006
4096.98	1.93494e+006
4096.49	1.93319e+006
4096.01	1.94884e+006
4095.53	1.96972e+006
4095.05	1.97097e+006
4094.56	1.94544e+006
4094.08	1.92016e+006
4093.6	1.92478e+006
4093.12	1.94871e+006
4092.64	1.95452e+006
4092.15	1.93423e+006
4091.67	1.9214e+006
4091.19	1.93764e+006
4090.71	1.95915e+006
4090.22	1.95655e+006
4089.74	1.94107e+006
4089.26	1.94302e+006
4088.78	1.96277e+006
4088.3	1.97413e+006
4087.81	1.96699e+006
4087.33	1.95691e+006
4086.85	1.95461e+006
4086.37	1.9528e+006
4085.88	1.94704e+006
4085.4	1.94768e+006
4084.92	1.96267e+006
4084.44	1.98301e+006
4083.95	1.99315e+006
4083.47	1.98688e+006
4082.99	1.9689e+006
4082.51	1.94917e+006
4082.03	1.93902e+006
4081.54	1.94443e+006
4081.06	1.95803e+006
4080.58	1.96373e+006
4080.1	1.95421e+006
4079.61	1.94038e+006
4079.13	1.93895e+006
4078.65	1.95264e+006
4078.17	1.96697e+006
4077.69	1.96694e+006
4077.2	1.95377e+006
4076.72	1.94274e+006
4076.24	1.9455e+006
4075.76	1.95777e+006
4075.27	1.96551e+006
4074.79	1.96052e+006
4074.31	1.94775e+006
4073.83	1.93885e+006
4073.34	1.94101e+006
4072.86	1.95146e+006
4072.38	1.96137e+006
4071.9	1.9645e+006
4071.42	1.96148e+006
4070.93	1.9556e+006
4070.45	1.94897e+006
4069.97	1.94576e+006
4069.49	1.95293e+006
4069	1.96918e+006
4068.52	1.97874e+006
4068.04	1.96887e+006
4067.56	1.95082e+006
4067.07	1.94831e+006
4066.59	1.96518e+006
4066.11	1.98129e+006
4065.63	1.98286e+006
4065.15	1.97832e+006
4064.66	1.97828e+006
4064.18	1.97855e+006
4063.7	1.9731e+006
4063.22	1.96753e+006
4062.73	1.96879e+006
4062.25	1.97479e+006
4061.77	1.98247e+006
4061.29	1.99209e+006
4060.81	1.9973e+006
4060.32	1.98808e+006
4059.84	1.97025e+006
4059.36	1.96225e+006
4058.88	1.96559e+006
4058.39	1.96188e+006
4057.91	1.94773e+006
4057.43	1.94488e+006
4056.95	1.96194e+006
4056.46	1.97543e+006
4055.98	1.96728e+006
4055.5	1.95287e+006
4055.02	1.95078e+006
4054.54	1.95385e+006
4054.05	1.95351e+006
4053.57	1.96192e+006
4053.09	1.98235e+006
4052.61	1.98934e+006
4052.12	1.97102e+006
4051.64	1.95899e+006
4051.16	1.97787e+006
4050.68	1.9971e+006
4050.2	1.97951e+006
4049.71	1.94888e+006
4049.23	1.95419e+006
4048.75	1.98778e+006
4048.27	1.99993e+006
4047.78	1.98351e+006
4047.3	1.98029e+006
4046.82	2.0027e+006
4046.34	2.01178e+006
4045.85	1.98525e+006
4045.37	1.95319e+006
4044.89	1.94688e+006
4044.41	1.95758e+006
4043.93	1.96594e+006
4043.44	1.97288e+006
4042.96	1.98066e+006
4042.48	1.97715e+006
4042	1.96055e+006
4041.51	1.95248e+006
4041.03	1.96714e+006
4040.55	1.98938e+006
4040.07	1.99761e+006
4039.58	1.98889e+006
4039.1	1.97114e+006
4038.62	1.95116e+006
4038.14	1.93896e+006
4037.66	1.94414e+006
4037.17	1.96066e+006
4036.69	1.97348e+006
4036.21	1.98267e+006
4035.73	1.99953e+006
4035.24	2.01823e+006
4034.76	2.01735e+006
4034.28	1.99517e+006
4033.8	1.97782e+006
4033.32	1.98319e+006
4032.83	1.99762e+006
4032.35	1.99747e+006
4031.87	1.9779e+006
4031.39	1.95405e+006
4030.9	1.94538e+006
4030.42	1.96009e+006
4029.94	1.98504e+006
4029.46	1.99644e+006
4028.97	1.99054e+006
4028.49	1.99028e+006
4028.01	2.00738e+006
4027.53	2.01798e+006
4027.05	1.99941e+006
4026.56	1.96979e+006
4026.08	1.96002e+006
4025.6	1.96645e+006
4025.12	1.96751e+006
4024.63	1.96866e+006
4024.15	1.9875e+006
4023.67	2.00851e+006
4023.19	2.00068e+006
4022.71	1.97246e+006
4022.22	1.96152e+006
4021.74	1.97469e+006
4021.26	1.98607e+006
4020.78	1.99038e+006
4020.29	2.00578e+006
4019.81	2.02436e+006
4019.33	2.01588e+006
4018.85	1.98674e+006
4018.36	1.97867e+006
4017.88	1.99756e+006
4017.4	2.00042e+006
4016.92	1.97013e+006
4016.44	1.94708e+006
4015.95	1.96186e+006
4015.47	1.9879e+006
4014.99	1.99042e+006
4014.51	1.97726e+006
4014.02	1.97108e+006
4013.54	1.97182e+006
4013.06	1.97592e+006
4012.58	1.99385e+006
4012.09	2.01977e+006
4011.61	2.02253e+006
4011.13	1.99646e+006
4010.65	1.98224e+006
4010.17	2.00551e+006
4009.68	2.03388e+006
4009.2	2.02978e+006
4008.72	2.00726e+006
4008.24	1.9965e+006
4007.75	1.98963e+006
4007.27	1.96867e+006
4006.79	1.95477e+006
4006.31	1.97648e+006
4005.83	2.01151e+006
4005.34	2.01469e+006
4004.86	1.98996e+006
4004.38	1.98164e+006
4003.9	2.00135e+006
4003.41	2.01573e+006
4002.93	2.00736e+006
4002.45	1.99879e+006
4001.97	2.00721e+006
4001.48	2.01747e+006
4001	2.01423e+006
4000.52	2.00656e+006
4000.04	2.00562e+006
3999.56	2.00538e+006
3999.07	1.99997e+006
3998.59	1.99719e+006
3998.11	2.00097e+006
3997.63	2.00063e+006
3997.14	1.99085e+006
3996.66	1.98491e+006
3996.18	1.9936e+006
3995.7	2.00484e+006
3995.22	1.99945e+006
3994.73	1.97904e+006
3994.25	1.96513e+006
3993.77	1.9736e+006
3993.29	1.999e+006
3992.8	2.02228e+006
3992.32	2.02816e+006
3991.84	2.01544e+006
3991.36	1.99516e+006
3990.87	1.98141e+006
3990.39	1.98341e+006
3989.91	2.00087e+006
3989.43	2.02088e+006
3988.95	2.02293e+006
3988.46	1.99953e+006
3987.98	1.9729e+006
3987.5	1.97607e+006
3987.02	2.01095e+006
3986.53	2.04144e+006
3986.05	2.0393e+006
3985.57	2.01997e+006
3985.09	2.01629e+006
3984.6	2.0314e+006
3984.12	2.04136e+006
3983.64	2.03509e+006
3983.16	2.02532e+006
3982.68	2.02175e+006
3982.19	2.01885e+006
3981.71	2.01255e+006
3981.23	2.00701e+006
3980.75	2.00105e+006
3980.26	1.9895e+006
3979.78	1.98154e+006
3979.3	1.99429e+006
3978.82	2.02196e+006
3978.34	2.03604e+006
3977.85	2.02591e+006
3977.37	2.01382e+006
3976.89	2.01597e+006
3976.41	2.01607e+006
3975.92	1.9984e+006
3975.44	1.98157e+006
3974.96	1.99086e+006
3974.48	2.01599e+006
3973.99	2.0282e+006
3973.51	2.02509e+006
3973.03	2.02432e+006
3972.55	2.0235e+006
3972.07	2.00505e+006
3971.58	1.97863e+006
3971.1	1.97761e+006
3970.62	2.00606e+006
3970.14	2.02673e+006
3969.65	2.01585e+006
3969.17	1.99654e+006
3968.69	1.99896e+006
3968.21	2.01569e+006
3967.72	2.0203e+006
3967.24	2.00952e+006
3966.76	2.00234e+006
3966.28	2.00969e+006
3965.8	2.02483e+006
3965.31	2.03592e+006
3964.83	2.03513e+006
3964.35	2.02393e+006
3963.87	2.0168e+006
3963.38	2.02716e+006
3962.9	2.0449e+006
3962.42	2.04613e+006
3961.94	2.02953e+006
3961.46	2.01851e+006
3960.97	2.02074e+006
3960.49	2.01689e+006
3960.01	2.00234e+006
3959.53	2.00327e+006
3959.04	2.02783e+006
3958.56	2.03886e+006
3958.08	2.01076e+006
3957.6	1.98093e+006
3957.11	1.99889e+006
3956.63	2.04643e+006
3956.15	2.06111e+006
3955.67	2.02991e+006
3955.19	2.00579e+006
3954.7	2.0252e+006
3954.22	2.05713e+006
3953.74	2.05376e+006
3953.26	2.01781e+006
3952.77	1.99477e+006
3952.29	2.01406e+006
3951.81	2.05634e+006
3951.33	2.07537e+006
3950.85	2.04663e+006
3950.36	1.99507e+006
3949.88	1.96958e+006
3949.4	1.98652e+006
3948.92	2.01329e+006
3948.43	2.01596e+006
3947.95	2.0021e+006
3947.47	1.99845e+006
3946.99	2.00811e+006
3946.5	2.01632e+006
3946.02	2.02112e+006
3945.54	2.02882e+006
3945.06	2.0318e+006
3944.58	2.01988e+006
3944.09	2.00235e+006
3943.61	1.99119e+006
3943.13	1.977e+006
3942.65	1.95176e+006
3942.16	1.93803e+006
3941.68	1.95892e+006
3941.2	1.99425e+006
3940.72	2.00774e+006
3940.23	2.00528e+006
3939.75	2.01997e+006
3939.27	2.04787e+006
3938.79	2.05095e+006
3938.31	2.02532e+006
3937.82	2.01372e+006
3937.34	2.03866e+006
3936.86	2.06941e+006
3936.38	2.07268e+006
3935.89	2.0569e+006
3935.41	2.04731e+006
3934.93	2.04897e+006
3934.45	2.05145e+006
3933.97	2.04464e+006
3933.48	2.01844e+006
3933	1.97183e+006
3932.52	1.92885e+006
3932.04	1.91929e+006
3931.55	1.9394e+006
3931.07	1.9595e+006
3930.59	1.96981e+006
3930.11	1.98546e+006
3929.62	2.00696e+006
3929.14	2.01631e+006
3928.66	2.01638e+006
3928.18	2.03122e+006
3927.7	2.0593e+006
3927.21	2.06961e+006
3926.73	2.05446e+006
3926.25	2.04081e+006
3925.77	2.03639e+006
3925.28	2.01415e+006
3924.8	1.96982e+006
3924.32	1.94449e+006
3923.84	1.96198e+006
3923.36	1.9908e+006
3922.87	2.00038e+006
3922.39	2.00882e+006
3921.91	2.03574e+006
3921.43	2.05214e+006
3920.94	2.02716e+006
3920.46	1.99068e+006
3919.98	1.99305e+006
3919.5	2.02357e+006
3919.01	2.02515e+006
3918.53	1.98084e+006
3918.05	1.9332e+006
3917.57	1.91673e+006
3917.09	1.91859e+006
3916.6	1.91736e+006
3916.12	1.92202e+006
3915.64	1.95231e+006
3915.16	2.0024e+006
3914.67	2.04296e+006
3914.19	2.05219e+006
3913.71	2.037e+006
3913.23	2.0255e+006
3912.74	2.03819e+006
3912.26	2.06575e+006
3911.78	2.08275e+006
3911.3	2.08293e+006
3910.82	2.08458e+006
3910.33	2.09699e+006
3909.85	2.10467e+006
3909.37	2.09713e+006
3908.89	2.09032e+006
3908.4	2.09848e+006
3907.92	2.10641e+006
3907.44	2.09456e+006
3906.96	2.0726e+006
3906.48	2.058e+006
3905.99	2.0373e+006
3905.51	1.98474e+006
3905.03	1.91247e+006
3904.55	1.86271e+006
3904.06	1.84699e+006
3903.58	1.83052e+006
3903.1	1.79027e+006
3902.62	1.75533e+006
3902.13	1.76579e+006
3901.65	1.81307e+006
3901.17	1.84925e+006
3900.69	1.84656e+006
3900.21	1.82211e+006
3899.72	1.80531e+006
3899.24	1.80591e+006
3898.76	1.82178e+006
3898.28	1.8565e+006
3897.79	1.91091e+006
3897.31	1.96817e+006
3896.83	2.00817e+006
3896.35	2.03385e+006
3895.87	2.0632e+006
3895.38	2.09524e+006
3894.9	2.10806e+006
3894.42	2.09726e+006
3893.94	2.0885e+006
3893.45	2.09375e+006
3892.97	2.08123e+006
3892.49	2.01914e+006
3892.01	1.932e+006
3891.52	1.87747e+006
3891.04	1.87488e+006
3890.56	1.89442e+006
3890.08	1.91517e+006
3889.6	1.95128e+006
3889.11	2.00997e+006
3888.63	2.06289e+006
3888.15	2.08087e+006
3887.67	2.0675e+006
3887.18	2.03604e+006
3886.7	1.98066e+006
3886.22	1.89905e+006
3885.74	1.82281e+006
3885.25	1.79338e+006
3884.77	1.81629e+006
3884.29	1.86415e+006
3883.81	1.91658e+006
3883.33	1.97211e+006
3882.84	2.02471e+006
3882.36	2.05374e+006
3881.88	2.04153e+006
3881.4	1.98849e+006
3880.91	1.91354e+006
3880.43	1.85108e+006
3879.95	1.83874e+006
3879.47	1.88741e+006
3878.99	1.96458e+006
3878.5	2.02379e+006
3878.02	2.05058e+006
3877.54	2.06628e+006
3877.06	2.09082e+006
3876.57	2.11991e+006
3876.09	2.13776e+006
3875.61	2.13277e+006
3875.13	2.0978e+006
3874.64	2.03432e+006
3874.16	1.96486e+006
3873.68	1.92666e+006
3873.2	1.94066e+006
3872.72	1.99114e+006
3872.23	2.03884e+006
3871.75	2.04747e+006
3871.27	1.99974e+006
3870.79	1.9052e+006
3870.3	1.8012e+006
3869.82	1.73323e+006
3869.34	1.7216e+006
3868.86	1.75237e+006
3868.38	1.80543e+006
3867.89	1.87753e+006
3867.41	1.96518e+006
3866.93	2.03808e+006
3866.45	2.05454e+006
3865.96	2.00719e+006
3865.48	1.93687e+006
3865	1.8939e+006
3864.52	1.89478e+006
3864.03	1.92099e+006
3863.55	1.94692e+006
3863.07	1.95837e+006
3862.59	1.95319e+006
3862.11	1.94086e+006
3861.62	1.9426e+006
3861.14	1.97839e+006
3860.66	2.04516e+006
3860.18	2.11317e+006
3859.69	2.1514e+006
3859.21	2.15581e+006
3858.73	2.1477e+006
3858.25	2.14612e+006
3857.76	2.14987e+006
3857.28	2.14891e+006
3856.8	2.14172e+006
3856.32	2.12642e+006
3855.84	2.07786e+006
3855.35	1.95658e+006
3854.87	1.75751e+006
3854.39	1.53946e+006
3853.91	1.38435e+006
3853.42	1.32501e+006
3852.94	1.32929e+006
3852.46	1.35651e+006
3851.98	1.40744e+006
3851.5	1.50544e+006
3851.01	1.64695e+006
3850.53	1.79457e+006
3850.05	1.91499e+006
3849.57	2.0042e+006
3849.08	2.0731e+006
3848.6	2.12536e+006
3848.12	2.15816e+006
3847.64	2.17588e+006
3847.15	2.19268e+006
3846.67	2.21963e+006
3846.19	2.25063e+006
3845.71	2.26332e+006
3845.23	2.23939e+006
3844.74	2.18528e+006
3844.26	2.12741e+006
3843.78	2.08615e+006
3843.3	2.06328e+006
3842.81	2.05474e+006
3842.33	2.05847e+006
3841.85	2.06237e+006
3841.37	2.04565e+006
3840.89	2.00944e+006
3840.4	1.98666e+006
3839.92	1.99519e+006
3839.44	1.99562e+006
3838.96	1.93128e+006
3838.47	1.80895e+006
3837.99	1.70608e+006
3837.51	1.68936e+006
3837.03	1.75162e+006
3836.54	1.83529e+006
3836.06	1.89136e+006
3835.58	1.90653e+006
3835.1	1.90142e+006
3834.62	1.91733e+006
3834.13	1.97985e+006
3833.65	2.05946e+006
3833.17	2.09253e+006
3832.69	2.05843e+006
3832.2	2.00989e+006
3831.72	2.00556e+006
3831.24	2.04109e+006
3830.76	2.077e+006
3830.27	2.10618e+006
3829.79	2.14932e+006
3829.31	2.19861e+006
3828.83	2.21724e+006
3828.35	2.19772e+006
3827.86	2.17597e+006
3827.38	2.17592e+006
3826.9	2.17871e+006
3826.42	2.1638e+006
3825.93	2.14707e+006
3825.45	2.15466e+006
3824.97	2.18428e+006
3824.49	2.21573e+006
3824.01	2.23871e+006
3823.52	2.2449e+006
3823.04	2.21041e+006
3822.56	2.11732e+006
3822.08	1.98674e+006
3821.59	1.86703e+006
3821.11	1.79216e+006
3820.63	1.76969e+006
3820.15	1.79957e+006
3819.66	1.8775e+006
3819.18	1.97982e+006
3818.7	2.06985e+006
3818.22	2.1245e+006
3817.74	2.13827e+006
3817.25	2.10404e+006
3816.77	2.01717e+006
3816.29	1.90548e+006
3815.81	1.82874e+006
3815.32	1.83017e+006
3814.84	1.90029e+006
3814.36	1.99766e+006
3813.88	2.08989e+006
3813.4	2.16504e+006
3812.91	2.22209e+006
3812.43	2.26732e+006
3811.95	2.30852e+006
3811.47	2.34045e+006
3810.98	2.34934e+006
3810.5	2.34209e+006
3810.02	2.34969e+006
3809.54	2.38128e+006
3809.05	2.394e+006
3808.57	2.33705e+006
3808.09	2.2162e+006
3807.61	2.08884e+006
3807.13	2.00381e+006
3806.64	1.97254e+006
3806.16	1.9894e+006
3805.68	2.04474e+006
3805.2	2.116e+006
3804.71	2.1766e+006
3804.23	2.21957e+006
3803.75	2.24811e+006
3803.27	2.24314e+006
3802.78	2.17213e+006
3802.3	2.0381e+006
3801.82	1.89365e+006
3801.34	1.79807e+006
3800.86	1.78086e+006
3800.37	1.84334e+006
3799.89	1.96138e+006
3799.41	2.08258e+006
3798.93	2.15928e+006
3798.44	2.19582e+006
3797.96	2.2292e+006
3797.48	2.25861e+006
3797	2.24234e+006
3796.52	2.18019e+006
3796.03	2.14225e+006
3795.55	2.17936e+006
3795.07	2.25228e+006
3794.59	2.2951e+006
3794.1	2.30907e+006
3793.62	2.33973e+006
3793.14	2.39089e+006
3792.66	2.42208e+006
3792.17	2.41783e+006
3791.69	2.40393e+006
3791.21	2.39874e+006
3790.73	2.3963e+006
3790.25	2.3965e+006
3789.76	2.40874e+006
3789.28	2.42496e+006
3788.8	2.42734e+006
3788.32	2.42161e+006
3787.83	2.42683e+006
3787.35	2.43571e+006
3786.87	2.42352e+006
3786.39	2.39357e+006
3785.91	2.37433e+006
3785.42	2.37274e+006
3784.94	2.37035e+006
3784.46	2.3649e+006
3783.98	2.37375e+006
3783.49	2.39414e+006
3783.01	2.40282e+006
3782.53	2.40071e+006
3782.05	2.41442e+006
3781.56	2.44358e+006
3781.08	2.4484e+006
3780.6	2.40446e+006
3780.12	2.3356e+006
3779.64	2.27953e+006
3779.15	2.25262e+006
3778.67	2.25793e+006
3778.19	2.29366e+006
3777.71	2.34143e+006
3777.22	2.37697e+006
3776.74	2.40239e+006
3776.26	2.43927e+006
3775.78	2.48534e+006
3775.29	2.51233e+006
3774.81	2.51169e+006
3774.33	2.5061e+006
3773.85	2.50951e+006
3773.37	2.51313e+006
3772.88	2.51613e+006
3772.4	2.52801e+006
3771.92	2.53225e+006
3771.44	2.49238e+006
3770.95	2.4084e+006
3770.47	2.32622e+006
3769.99	2.27907e+006
3769.51	2.26134e+006
3769.03	2.26856e+006
3768.54	2.31158e+006
3768.06	2.37436e+006
3767.58	2.40982e+006
3767.1	2.40135e+006
3766.61	2.38225e+006
3766.13	2.37517e+006
3765.65	2.36389e+006
3765.17	2.34706e+006
3764.68	2.36153e+006
3764.2	2.41975e+006
3763.72	2.4789e+006
3763.24	2.50798e+006
3762.76	2.53219e+006
3762.27	2.57153e+006
3761.79	2.59018e+006
3761.31	2.55341e+006
3760.83	2.4855e+006
3760.34	2.42481e+006
3759.86	2.37046e+006
3759.38	2.32148e+006
3758.9	2.31443e+006
3758.42	2.36363e+006
3757.93	2.41323e+006
3757.45	2.41225e+006
3756.97	2.39263e+006
3756.49	2.40788e+006
3756	2.44198e+006
3755.52	2.45458e+006
3755.04	2.47033e+006
3754.56	2.52959e+006
3754.07	2.57875e+006
3753.59	2.51184e+006
3753.11	2.32137e+006
3752.63	2.12149e+006
3752.15	2.01203e+006
3751.66	1.98932e+006
3751.18	1.99497e+006
3750.7	1.98289e+006
3750.22	1.93049e+006
3749.73	1.85023e+006
3749.25	1.80404e+006
3748.77	1.85183e+006
3748.29	1.97785e+006
3747.8	2.11421e+006
3747.32	2.22733e+006
3746.84	2.31911e+006
3746.36	2.3532e+006
3745.88	2.26349e+006
3745.39	2.05428e+006
3744.91	1.82584e+006
3744.43	1.67842e+006
3743.95	1.64188e+006
3743.46	1.70539e+006
3742.98	1.84944e+006
3742.5	2.02829e+006
3742.02	2.18139e+006
3741.54	2.28917e+006
3741.05	2.37501e+006
3740.57	2.44466e+006
3740.09	2.4779e+006
3739.61	2.48513e+006
3739.12	2.5046e+006
3738.64	2.52786e+006
3738.16	2.49691e+006
3737.68	2.39815e+006
3737.19	2.29085e+006
3736.71	2.21479e+006
3736.23	2.14061e+006
3735.75	2.049e+006
3735.27	1.98823e+006
3734.78	2.0014e+006
3734.3	2.05393e+006
3733.82	2.08721e+006
3733.34	2.09649e+006
3732.85	2.10483e+006
3732.37	2.108e+006
3731.89	2.10219e+006
3731.41	2.12524e+006
3730.93	2.2088e+006
3730.44	2.31945e+006
3729.96	2.403e+006
3729.48	2.45992e+006
3729	2.52047e+006
3728.51	2.57129e+006
3728.03	2.57009e+006
3727.55	2.52037e+006
3727.07	2.47164e+006
3726.58	2.44834e+006
3726.1	2.43157e+006
3725.62	2.41275e+006
3725.14	2.415e+006
3724.66	2.44972e+006
3724.17	2.49016e+006
3723.69	2.50304e+006
3723.21	2.48336e+006
3722.73	2.45151e+006
3722.24	2.43535e+006
3721.76	2.45571e+006
3721.28	2.50987e+006
3720.8	2.56773e+006
3720.31	2.59971e+006
3719.83	2.60634e+006
3719.35	2.60912e+006
3718.87	2.62157e+006
3718.39	2.64435e+006
3717.9	2.67779e+006
3717.42	2.71994e+006
3716.94	2.75954e+006
3716.46	2.78665e+006
3715.97	2.8035e+006
3715.49	2.81393e+006
3715.01	2.81375e+006
3714.53	2.79992e+006
3714.05	2.76999e+006
3713.56	2.70364e+006
3713.08	2.57703e+006
3712.6	2.41782e+006
3712.12	2.31041e+006
3711.63	2.30646e+006
3711.15	2.3543e+006
3710.67	2.36326e+006
3710.19	2.32203e+006
3709.7	2.30163e+006
3709.22	2.34803e+006
3708.74	2.43018e+006
3708.26	2.50426e+006
3707.78	2.57296e+006
3707.29	2.65258e+006
3706.81	2.7248e+006
3706.33	2.76123e+006
3705.85	2.77155e+006
3705.36	2.78981e+006
3704.88	2.82434e+006
3704.4	2.85111e+006
3703.92	2.84966e+006
3703.44	2.8194e+006
3702.95	2.76573e+006
3702.47	2.69633e+006
3701.99	2.63185e+006
3701.51	2.59819e+006
3701.02	2.60359e+006
3700.54	2.63744e+006
3700.06	2.68896e+006
3699.58	2.74976e+006
3699.09	2.80247e+006
3698.61	2.83207e+006
3698.13	2.84908e+006
3697.65	2.87472e+006
3697.17	2.9002e+006
3696.68	2.894e+006
3696.2	2.85931e+006
3695.72	2.84486e+006
3695.24	2.8757e+006
3694.75	2.91246e+006
3694.27	2.91459e+006
3693.79	2.90575e+006
3693.31	2.92347e+006
3692.82	2.93402e+006
3692.34	2.86991e+006
3691.86	2.74569e+006
3691.38	2.65862e+006
3690.9	2.65469e+006
3690.41	2.66208e+006
3689.93	2.59336e+006
3689.45	2.4585e+006
3688.97	2.33485e+006
3688.48	2.27198e+006
3688	2.27467e+006
3687.52	2.34219e+006
3687.04	2.46677e+006
3686.56	2.61111e+006
3686.07	2.73477e+006
3685.59	2.83335e+006
3685.11	2.91856e+006
3684.63	2.98052e+006
3684.14	3.00782e+006
3683.66	3.02258e+006
3683.18	3.0513e+006
3682.7	3.07858e+006
3682.21	3.07571e+006
3681.73	3.058e+006
3681.25	3.0621e+006
3680.77	3.07798e+006
3680.29	3.06093e+006
3679.8	3.00984e+006
3679.32	2.9775e+006
3678.84	2.99354e+006
3678.36	3.02441e+006
3677.87	3.0191e+006
3677.39	2.95119e+006
3676.91	2.81006e+006
3676.43	2.60257e+006
3675.95	2.38184e+006
3675.46	2.2294e+006
3674.98	2.1857e+006
3674.5	2.23104e+006
3674.02	2.34312e+006
3673.53	2.5215e+006
3673.05	2.73173e+006
3672.57	2.88043e+006
3672.09	2.89498e+006
3671.6	2.80069e+006
3671.12	2.6815e+006
3670.64	2.58986e+006
3670.16	2.53115e+006
3669.68	2.50708e+006
3669.19	2.52407e+006
3668.71	2.57115e+006
3668.23	2.63493e+006
3667.75	2.73012e+006
3667.26	2.87321e+006
3666.78	3.03027e+006
3666.3	3.13736e+006
3665.82	3.17912e+006
3665.33	3.2045e+006
3664.85	3.25192e+006
3664.37	3.30003e+006
3663.89	3.31346e+006
3663.41	3.30002e+006
3662.92	3.29186e+006
3662.44	3.29788e+006
3661.96	3.3082e+006
3661.48	3.32452e+006
3660.99	3.34897e+006
3660.51	3.35864e+006
3660.03	3.33349e+006
3659.55	3.3028e+006
3659.07	3.31778e+006
3658.58	3.37186e+006
3658.1	3.39032e+006
3657.62	3.31599e+006
3657.14	3.17314e+006
3656.65	3.03182e+006
3656.17	2.94252e+006
3655.69	2.92337e+006
3655.21	2.97442e+006
3654.72	3.07187e+006
3654.24	3.17122e+006
3653.76	3.24482e+006
3653.28	3.29815e+006
3652.8	3.32956e+006
3652.31	3.30475e+006
3651.83	3.20256e+006
3651.35	3.05728e+006
3650.87	2.91764e+006
3650.38	2.78846e+006
3649.9	2.65489e+006
3649.42	2.54108e+006
3648.94	2.4926e+006
3648.46	2.51151e+006
3647.97	2.55765e+006
3647.49	2.60903e+006
3647.01	2.67718e+006
3646.53	2.77035e+006
3646.04	2.88584e+006
3645.56	3.02983e+006
3645.08	3.19621e+006
3644.6	3.33457e+006
3644.11	3.39435e+006
3643.63	3.39755e+006
3643.15	3.4118e+006
3642.67	3.45276e+006
3642.19	3.47421e+006
3641.7	3.4574e+006
3641.22	3.44309e+006
3640.74	3.46004e+006
3640.26	3.48516e+006
3639.77	3.49541e+006
3639.29	3.50059e+006
3638.81	3.5033e+006
3638.33	3.48498e+006
3637.84	3.45546e+006
3637.36	3.45798e+006
3636.88	3.49867e+006
3636.4	3.52917e+006
3635.92	3.52547e+006
3635.43	3.52064e+006
3634.95	3.52807e+006
3634.47	3.50347e+006
3633.99	3.42994e+006
3633.5	3.37376e+006
3633.02	3.39487e+006
3632.54	3.45673e+006
3632.06	3.48705e+006
3631.58	3.47584e+006
3631.09	3.44238e+006
3630.61	3.3518e+006
3630.13	3.15389e+006
3629.65	2.88722e+006
3629.16	2.6657e+006
3628.68	2.56288e+006
3628.2	2.5698e+006
3627.72	2.65758e+006
3627.23	2.81189e+006
3626.75	2.99891e+006
3626.27	3.16165e+006
3625.79	3.27561e+006
3625.31	3.36906e+006
3624.82	3.47011e+006
3624.34	3.56447e+006
3623.86	3.62124e+006
3623.38	3.63628e+006
3622.89	3.63311e+006
3622.41	3.63252e+006
3621.93	3.63043e+006
3621.45	3.60331e+006
3620.97	3.53609e+006
3620.48	3.44385e+006
3620	3.35576e+006
3619.52	3.2817e+006
3619.04	3.21751e+006
3618.55	3.18116e+006
3618.07	3.20623e+006
3617.59	3.28753e+006
3617.11	3.37206e+006
3616.62	3.42525e+006
3616.14	3.4699e+006
3615.66	3.53476e+006
3615.18	3.60171e+006
3614.7	3.63517e+006
3614.21	3.6297e+006
3613.73	3.59587e+006
3613.25	3.53522e+006
3612.77	3.4688e+006
3612.28	3.45381e+006
3611.8	3.51983e+006
3611.32	3.61105e+006
3610.84	3.64136e+006
3610.35	3.59126e+006
3609.87	3.5087e+006
3609.39	3.43717e+006
3608.91	3.3926e+006
3608.43	3.39019e+006
3607.94	3.43383e+006
3607.46	3.48761e+006
3606.98	3.51535e+006
3606.5	3.54464e+006
3606.01	3.63169e+006
3605.53	3.76128e+006
3605.05	3.84794e+006
3604.57	3.8537e+006
3604.09	3.84069e+006
3603.6	3.87375e+006
3603.12	3.92598e+006
3602.64	3.92981e+006
3602.16	3.88313e+006
3601.67	3.84631e+006
3601.19	3.85004e+006
3600.71	3.86343e+006
3600.23	3.85777e+006
3599.74	3.85186e+006
3599.26	3.8718e+006
3598.78	3.90116e+006
3598.3	3.9049e+006
3597.82	3.88531e+006
3597.33	3.87795e+006
3596.85	3.89368e+006
3596.37	3.89946e+006
3595.89	3.8695e+006
3595.4	3.8272e+006
3594.92	3.81337e+006
3594.44	3.83049e+006
3593.96	3.84611e+006
3593.48	3.84378e+006
3592.99	3.84409e+006
3592.51	3.87492e+006
3592.03	3.9414e+006
3591.55	4.02545e+006
3591.06	4.09603e+006
3590.58	4.11959e+006
3590.1	4.08048e+006
3589.62	3.99595e+006
3589.13	3.89844e+006
3588.65	3.80491e+006
3588.17	3.71688e+006
3587.69	3.64301e+006
3587.21	3.60042e+006
3586.72	3.59739e+006
3586.24	3.63453e+006
3585.76	3.71595e+006
3585.28	3.83428e+006
3584.79	3.95286e+006
3584.31	4.03531e+006
3583.83	4.09137e+006
3583.35	4.15953e+006
3582.86	4.24287e+006
3582.38	4.29941e+006
3581.9	4.30438e+006
3581.42	4.28382e+006
3580.94	4.27076e+006
3580.45	4.26312e+006
3579.97	4.24805e+006
3579.49	4.23861e+006
3579.01	4.25656e+006
3578.52	4.2949e+006
3578.04	4.32476e+006
3577.56	4.33269e+006
3577.08	4.33232e+006
3576.6	4.34191e+006
3576.11	4.36287e+006
3575.63	4.38052e+006
3575.15	4.38136e+006
3574.67	4.36973e+006
3574.18	4.36389e+006
3573.7	4.37278e+006
3573.22	4.38694e+006
3572.74	4.39974e+006
3572.25	4.41995e+006
3571.77	4.44763e+006
3571.29	4.45909e+006
3570.81	4.44168e+006
3570.33	4.42159e+006
3569.84	4.421e+006
3569.36	4.40647e+006
3568.88	4.32701e+006
3568.4	4.19353e+006
3567.91	4.06985e+006
3567.43	3.98894e+006
3566.95	3.93388e+006
3566.47	3.90458e+006
3565.99	3.9377e+006
3565.5	4.03801e+006
3565.02	4.14776e+006
3564.54	4.21834e+006
3564.06	4.26714e+006
3563.57	4.32978e+006
3563.09	4.39966e+006
3562.61	4.45382e+006
3562.13	4.49975e+006
3561.64	4.55038e+006
3561.16	4.58262e+006
3560.68	4.57041e+006
3560.2	4.54008e+006
3559.72	4.54436e+006
3559.23	4.59009e+006
3558.75	4.63488e+006
3558.27	4.65178e+006
3557.79	4.65685e+006
3557.3	4.67008e+006
3556.82	4.68584e+006
3556.34	4.69293e+006
3555.86	4.69677e+006
3555.37	4.70729e+006
3554.89	4.72105e+006
3554.41	4.72677e+006
3553.93	4.71992e+006
3553.45	4.70527e+006
3552.96	4.68963e+006
3552.48	4.67588e+006
3552	4.66388e+006
3551.52	4.65892e+006
3551.03	4.67542e+006
3550.55	4.72103e+006
3550.07	4.77716e+006
3549.59	4.81082e+006
3549.11	4.81074e+006
3548.62	4.79552e+006
3548.14	4.78095e+006
3547.66	4.76068e+006
3547.18	4.72981e+006
3546.69	4.70369e+006
3546.21	4.69416e+006
3545.73	4.6884e+006
3545.25	4.67532e+006
3544.76	4.67531e+006
3544.28	4.71428e+006
3543.8	4.77974e+006
3543.32	4.83412e+006
3542.84	4.86548e+006
3542.35	4.89356e+006
3541.87	4.92842e+006
3541.39	4.95771e+006
3540.91	4.97815e+006
3540.42	5.00422e+006
3539.94	5.03474e+006
3539.46	5.04475e+006
3538.98	5.02831e+006
3538.49	5.01756e+006
3538.01	5.03467e+006
3537.53	5.05268e+006
3537.05	5.03661e+006
3536.57	5.00235e+006
3536.08	4.99565e+006
3535.6	5.02384e+006
3535.12	5.05025e+006
3534.64	5.05653e+006
3534.15	5.06876e+006
3533.67	5.10889e+006
3533.19	5.15476e+006
3532.71	5.16988e+006
3532.23	5.15105e+006
3531.74	5.12585e+006
3531.26	5.11701e+006
3530.78	5.12583e+006
3530.3	5.14039e+006
3529.81	5.14674e+006
3529.33	5.1387e+006
3528.85	5.12326e+006
3528.37	5.11015e+006
3527.88	5.09853e+006
3527.4	5.08752e+006
3526.92	5.09204e+006
3526.44	5.1223e+006
3525.96	5.15274e+006
3525.47	5.14825e+006
3524.99	5.12276e+006
3524.51	5.12734e+006
3524.03	5.16916e+006
3523.54	5.1937e+006
3523.06	5.17189e+006
3522.58	5.1524e+006
3522.1	5.18719e+006
3521.62	5.25182e+006
3521.13	5.29024e+006
3520.65	5.30089e+006
3520.17	5.32007e+006
3519.69	5.34921e+006
3519.2	5.3615e+006
3518.72	5.36223e+006
3518.24	5.37966e+006
3517.76	5.40673e+006
3517.27	5.41241e+006
3516.79	5.4045e+006
3516.31	5.42041e+006
3515.83	5.45829e+006
3515.35	5.47824e+006
3514.86	5.47312e+006
3514.38	5.47726e+006
3513.9	5.49896e+006
3513.42	5.50602e+006
3512.93	5.4899e+006
3512.45	5.48513e+006
3511.97	5.50757e+006
3511.49	5.52782e+006
3511	5.52388e+006
3510.52	5.51012e+006
3510.04	5.49784e+006
3509.56	5.47832e+006
3509.08	5.46063e+006
3508.59	5.47363e+006
3508.11	5.51292e+006
3507.63	5.53966e+006
3507.15	5.5486e+006
3506.66	5.57793e+006
3506.18	5.63055e+006
3505.7	5.65144e+006
3505.22	5.61612e+006
3504.74	5.57686e+006
3504.25	5.57885e+006
3503.77	5.59098e+006
3503.29	5.57065e+006
3502.81	5.54272e+006
3502.32	5.55512e+006
3501.84	5.59955e+006
3501.36	5.63637e+006
3500.88	5.66392e+006
3500.39	5.70391e+006
3499.91	5.7471e+006
3499.43	5.77171e+006
3498.95	5.79236e+006
3498.47	5.83348e+006
3497.98	5.8731e+006
3497.5	5.86985e+006
3497.02	5.83239e+006
3496.54	5.80808e+006
3496.05	5.81268e+006
3495.57	5.8235e+006
3495.09	5.83461e+006
3494.61	5.86455e+006
3494.13	5.90877e+006
3493.64	5.93487e+006
3493.16	5.933e+006
3492.68	5.92953e+006
3492.2	5.94212e+006
3491.71	5.95745e+006
3491.23	5.96264e+006
3490.75	5.9679e+006
3490.27	5.98709e+006
3489.78	6.01793e+006
3489.3	6.04686e+006
3488.82	6.05755e+006
3488.34	6.03908e+006
3487.86	6.00444e+006
3487.37	5.99069e+006
3486.89	6.01697e+006
3486.41	6.05509e+006
3485.93	6.07048e+006
3485.44	6.07665e+006
3484.96	6.11011e+006
3484.48	6.16199e+006
3484	6.18272e+006
3483.51	6.15732e+006
3483.03	6.12846e+006
3482.55	6.1319e+006
3482.07	6.15129e+006
3481.59	6.15746e+006
3481.1	6.15594e+006
3480.62	6.16936e+006
3480.14	6.20013e+006
3479.66	6.23768e+006
3479.17	6.28165e+006
3478.69	6.3313e+006
3478.21	6.3677e+006
3477.73	6.37362e+006
3477.25	6.36205e+006
3476.76	6.36157e+006
3476.28	6.37934e+006
3475.8	6.39928e+006
3475.32	6.41122e+006
3474.83	6.42074e+006
3474.35	6.43225e+006
3473.87	6.44338e+006
3473.39	6.45738e+006
3472.9	6.48144e+006
3472.42	6.50905e+006
3471.94	6.5229e+006
3471.46	6.52261e+006
3470.98	6.53144e+006
3470.49	6.5642e+006
3470.01	6.60445e+006
3469.53	6.62924e+006
3469.05	6.64213e+006
3468.56	6.6607e+006
3468.08	6.68072e+006
3467.6	6.6811e+006
3467.12	6.66537e+006
3466.64	6.66817e+006
3466.15	6.70697e+006
3465.67	6.75138e+006
3465.19	6.76247e+006
3464.71	6.74688e+006
3464.22	6.74541e+006
3463.74	6.77431e+006
3463.26	6.80572e+006
3462.78	6.81087e+006
3462.29	6.799e+006
3461.81	6.80063e+006
3461.33	6.82774e+006
3460.85	6.86598e+006
3460.37	6.89971e+006
3459.88	6.92932e+006
3459.4	6.96135e+006
3458.92	6.99136e+006
3458.44	7.00517e+006
3457.95	6.99819e+006
3457.47	6.98766e+006
3456.99	6.9977e+006
3456.51	7.032e+006
3456.02	7.0705e+006
3455.54	7.09696e+006
3455.06	7.11824e+006
3454.58	7.14697e+006
3454.1	7.17643e+006
3453.61	7.19021e+006
3453.13	7.19176e+006
3452.65	7.20383e+006
3452.17	7.23628e+006
3451.68	7.27281e+006
3451.2	7.29631e+006
3450.72	7.31123e+006
3450.24	7.33101e+006
3449.76	7.35691e+006
3449.27	7.38031e+006
3448.79	7.39416e+006
3448.31	7.39008e+006
3447.83	7.35724e+006
3447.34	7.30217e+006
3446.86	7.26098e+006
3446.38	7.26929e+006
3445.9	7.32071e+006
3445.41	7.37485e+006
3444.93	7.40763e+006
3444.45	7.4317e+006
3443.97	7.46154e+006
3443.49	7.48408e+006
3443	7.48171e+006
3442.52	7.46606e+006
3442.04	7.46523e+006
3441.56	7.48531e+006
3441.07	7.50648e+006
3440.59	7.51446e+006
3440.11	7.51539e+006
3439.63	7.51933e+006
3439.15	7.52762e+006
3438.66	7.54014e+006
3438.18	7.55901e+006
3437.7	7.58028e+006
3437.22	7.5953e+006
3436.73	7.60408e+006
3436.25	7.61544e+006
3435.77	7.6319e+006
3435.29	7.64813e+006
3434.8	7.66531e+006
3434.32	7.69055e+006
3433.84	7.71879e+006
3433.36	7.73416e+006
3432.88	7.73637e+006
3432.39	7.7479e+006
3431.91	7.7844e+006
3431.43	7.8326e+006
3430.95	7.86836e+006
3430.46	7.8843e+006
3429.98	7.89023e+006
3429.5	7.89779e+006
3429.02	7.91309e+006
3428.53	7.93454e+006
3428.05	7.95291e+006
3427.57	7.96446e+006
3427.09	7.98286e+006
3426.61	8.02023e+006
3426.12	8.05888e+006
3425.64	8.06952e+006
3425.16	8.06042e+006
3424.68	8.07377e+006
3424.19	8.12148e+006
3423.71	8.16328e+006
3423.23	8.17053e+006
3422.75	8.17284e+006
3422.27	8.20638e+006
3421.78	8.24871e+006
3421.3	8.25198e+006
3420.82	8.22218e+006
3420.34	8.2154e+006
3419.85	8.2591e+006
3419.37	8.32166e+006
3418.89	8.36582e+006
3418.41	8.3946e+006
3417.92	8.43095e+006
3417.44	8.47941e+006
3416.96	8.52451e+006
3416.48	8.55335e+006
3416	8.56871e+006
3415.51	8.58453e+006
3415.03	8.60965e+006
3414.55	8.63356e+006
3414.07	8.63717e+006
3413.58	8.62236e+006
3413.1	8.61431e+006
3412.62	8.62374e+006
3412.14	8.62775e+006
3411.66	8.60624e+006
3411.17	8.57575e+006
3410.69	8.56227e+006
3410.21	8.55971e+006
3409.73	8.54564e+006
3409.24	8.52231e+006
3408.76	8.50795e+006
3408.28	8.49815e+006
3407.8	8.47117e+006
3407.31	8.42569e+006
3406.83	8.37999e+006
3406.35	8.33855e+006
3405.87	8.29282e+006
3405.39	8.25008e+006
3404.9	8.22475e+006
3404.42	8.20297e+006
3403.94	8.15529e+006
3403.46	8.08739e+006
3402.97	8.0381e+006
3402.49	8.01941e+006
3402.01	7.99883e+006
3401.53	7.95418e+006
3401.04	7.90491e+006
3400.56	7.86881e+006
3400.08	7.82656e+006
3399.6	7.75848e+006
3399.12	7.68445e+006
3398.63	7.63245e+006
3398.15	7.59096e+006
3397.67	7.53087e+006
3397.19	7.45905e+006
3396.7	7.41001e+006
3396.22	7.3892e+006
3395.74	7.36347e+006
3395.26	7.31269e+006
3394.78	7.25676e+006
3394.29	7.21907e+006
3393.81	7.19097e+006
3393.33	7.15034e+006
3392.85	7.09648e+006
3392.36	7.04753e+006
3391.88	7.01529e+006
3391.4	6.99857e+006
3390.92	6.99171e+006
3390.43	6.98503e+006
3389.95	6.96596e+006
3389.47	6.93499e+006
3388.99	6.91133e+006
3388.51	6.90727e+006
3388.02	6.9073e+006
3387.54	6.89211e+006
3387.06	6.87135e+006
3386.58	6.86658e+006
3386.09	6.87098e+006
3385.61	6.85956e+006
3385.13	6.8366e+006
3384.65	6.83401e+006
3384.17	6.85698e+006
3383.68	6.87218e+006
3383.2	6.86391e+006
3382.72	6.86051e+006
3382.24	6.88285e+006
3381.75	6.90661e+006
3381.27	6.9061e+006
3380.79	6.89959e+006
3380.31	6.91446e+006
3379.82	6.93867e+006
3379.34	6.94706e+006
3378.86	6.94891e+006
3378.38	6.96679e+006
3377.9	6.99212e+006
3377.41	7.00689e+006
3376.93	7.02632e+006
3376.45	7.06976e+006
3375.97	7.11001e+006
3375.48	7.10883e+006
3375	7.08886e+006
3374.52	7.10805e+006
3374.04	7.16826e+006
3373.55	7.21415e+006
3373.07	7.22573e+006
3372.59	7.24529e+006
3372.11	7.29755e+006
3371.63	7.34762e+006
3371.14	7.36562e+006
3370.66	7.37804e+006
3370.18	7.41968e+006
3369.7	7.47692e+006
3369.21	7.5157e+006
3368.73	7.5344e+006
3368.25	7.55535e+006
3367.77	7.58626e+006
3367.29	7.61809e+006
3366.8	7.64482e+006
3366.32	7.66469e+006
3365.84	7.6772e+006
3365.36	7.69219e+006
3364.87	7.72457e+006
3364.39	7.76966e+006
3363.91	7.80356e+006
3363.43	7.81695e+006
3362.94	7.82686e+006
3362.46	7.84663e+006
3361.98	7.86762e+006
3361.5	7.88048e+006
3361.02	7.89213e+006
3360.53	7.91021e+006
3360.05	7.92959e+006
3359.57	7.94331e+006
3359.09	7.95094e+006
3358.6	7.95279e+006
3358.12	7.95268e+006
3357.64	7.96481e+006
3357.16	7.99642e+006
3356.68	8.02699e+006
3356.19	8.03063e+006
3355.71	8.01658e+006
3355.23	8.01826e+006
3354.75	8.04307e+006
3354.26	8.06554e+006
3353.78	8.07272e+006
3353.3	8.08166e+006
3352.82	8.10406e+006
3352.33	8.12637e+006
3351.85	8.13746e+006
3351.37	8.14876e+006
3350.89	8.17276e+006
3350.41	8.20293e+006
3349.92	8.22705e+006
3349.44	8.24372e+006
3348.96	8.2574e+006
3348.48	8.27102e+006
3347.99	8.28813e+006
3347.51	8.31125e+006
3347.03	8.33867e+006
3346.55	8.37219e+006
3346.06	8.41898e+006
3345.58	8.4737e+006
3345.1	8.51432e+006
3344.62	8.53397e+006
3344.14	8.55877e+006
3343.65	8.61002e+006
3343.17	8.6682e+006
3342.69	8.70366e+006
3342.21	8.72357e+006
3341.72	8.75301e+006
3341.24	8.78617e+006
3340.76	8.7971e+006
3340.28	8.78851e+006
3339.8	8.78851e+006
3339.31	8.80325e+006
3338.83	8.81029e+006
3338.35	8.79718e+006
3337.87	8.77325e+006
3337.38	8.74623e+006
3336.9	8.71777e+006
3336.42	8.69744e+006
3335.94	8.69227e+006
3335.45	8.6886e+006
3334.97	8.67019e+006
3334.49	8.64326e+006
3334.01	8.61893e+006
3333.53	8.58948e+006
3333.04	8.55169e+006
3332.56	8.53014e+006
3332.08	8.53986e+006
3331.6	8.54837e+006
3331.11	8.51801e+006
3330.63	8.46664e+006
3330.15	8.44004e+006
3329.67	8.44024e+006
3329.19	8.42997e+006
3328.7	8.39564e+006
3328.22	8.35708e+006
3327.74	8.32339e+006
3327.26	8.28665e+006
3326.77	8.25327e+006
3326.29	8.23685e+006
3325.81	8.22549e+006
3325.33	8.1967e+006
3324.84	8.15692e+006
3324.36	8.12771e+006
3323.88	8.10517e+006
3323.4	8.07315e+006
3322.92	8.04052e+006
3322.43	8.02222e+006
3321.95	8.00127e+006
3321.47	7.95704e+006
3320.99	7.91244e+006
3320.5	7.90191e+006
3320.02	7.90913e+006
3319.54	7.89152e+006
3319.06	7.85147e+006
3318.57	7.82553e+006
3318.09	7.81544e+006
3317.61	7.79072e+006
3317.13	7.75191e+006
3316.65	7.72951e+006
3316.16	7.72306e+006
3315.68	7.70143e+006
3315.2	7.66328e+006
3314.72	7.63956e+006
3314.23	7.63428e+006
3313.75	7.61977e+006
3313.27	7.5927e+006
3312.79	7.57873e+006
3312.31	7.57762e+006
3311.82	7.56014e+006
3311.34	7.52617e+006
3310.86	7.51043e+006
3310.38	7.52052e+006
3309.89	7.52213e+006
3309.41	7.49864e+006
3308.93	7.47597e+006
3308.45	7.47294e+006
3307.96	7.47174e+006
3307.48	7.4554e+006
3307	7.43745e+006
3306.52	7.43779e+006
3306.04	7.45723e+006
3305.55	7.48492e+006
3305.07	7.50664e+006
3304.59	7.50581e+006
3304.11	7.48192e+006
3303.62	7.46218e+006
3303.14	7.46718e+006
3302.66	7.47652e+006
3302.18	7.46052e+006
3301.7	7.43086e+006
3301.21	7.4213e+006
3300.73	7.43248e+006
3300.25	7.43816e+006
3299.77	7.43331e+006
3299.28	7.43191e+006
3298.8	7.42885e+006
3298.32	7.41046e+006
3297.84	7.39281e+006
3297.35	7.40198e+006
3296.87	7.42524e+006
3296.39	7.42923e+006
3295.91	7.41731e+006
3295.43	7.41943e+006
3294.94	7.43411e+006
3294.46	7.43363e+006
3293.98	7.42106e+006
3293.5	7.42635e+006
3293.01	7.44639e+006
3292.53	7.44491e+006
3292.05	7.41676e+006
3291.57	7.3989e+006
3291.08	7.40833e+006
3290.6	7.41835e+006
3290.12	7.40934e+006
3289.64	7.39843e+006
3289.16	7.40378e+006
3288.67	7.41678e+006
3288.19	7.42411e+006
3287.71	7.42701e+006
3287.23	7.42843e+006
3286.74	7.42646e+006
3286.26	7.42574e+006
3285.78	7.43252e+006
3285.3	7.4399e+006
3284.82	7.43965e+006
3284.33	7.44008e+006
3283.85	7.44817e+006
3283.37	7.4484e+006
3282.89	7.42891e+006
3282.4	7.41164e+006
3281.92	7.42105e+006
3281.44	7.44013e+006
3280.96	7.43777e+006
3280.47	7.42327e+006
3279.99	7.42839e+006
3279.51	7.44856e+006
3279.03	7.45148e+006
3278.55	7.43642e+006
3278.06	7.43426e+006
3277.58	7.45026e+006
3277.1	7.45662e+006
3276.62	7.44579e+006
3276.13	7.44474e+006
3275.65	7.46775e+006
3275.17	7.49512e+006
3274.69	7.50848e+006
3274.21	7.51285e+006
3273.72	7.51624e+006
3273.24	7.51811e+006
3272.76	7.52447e+006
3272.28	7.54614e+006
3271.79	7.5768e+006
3271.31	7.59653e+006
3270.83	7.59923e+006
3270.35	7.59648e+006
3269.86	7.5977e+006
3269.38	7.60597e+006
3268.9	7.62487e+006
3268.42	7.6488e+006
3267.94	7.65941e+006
3267.45	7.65314e+006
3266.97	7.65498e+006
3266.49	7.68035e+006
3266.01	7.70604e+006
3265.52	7.70851e+006
3265.04	7.70578e+006
3264.56	7.72435e+006
3264.08	7.75048e+006
3263.59	7.75824e+006
3263.11	7.76163e+006
3262.63	7.78708e+006
3262.15	7.81422e+006
3261.67	7.80287e+006
3261.18	7.76816e+006
3260.7	7.7677e+006
3260.22	7.81519e+006
3259.74	7.8645e+006
3259.25	7.88273e+006
3258.77	7.88332e+006
3258.29	7.88189e+006
3257.81	7.87617e+006
3257.33	7.87977e+006
3256.84	7.91793e+006
3256.36	7.97297e+006
3255.88	7.9899e+006
3255.4	7.95911e+006
3254.91	7.93977e+006
3254.43	7.97297e+006
3253.95	8.02285e+006
3253.47	8.0401e+006
3252.98	8.03658e+006
3252.5	8.05167e+006
3252.02	8.08247e+006
3251.54	8.09863e+006
3251.06	8.10116e+006
3250.57	8.11492e+006
3250.09	8.13742e+006
3249.61	8.14439e+006
3249.13	8.14032e+006
3248.64	8.15745e+006
3248.16	8.20266e+006
3247.68	8.24567e+006
3247.2	8.26446e+006
3246.72	8.26618e+006
3246.23	8.25806e+006
3245.75	8.23659e+006
3245.27	8.2163e+006
3244.79	8.22963e+006
3244.3	8.27838e+006
3243.82	8.32054e+006
3243.34	8.32979e+006
3242.86	8.33407e+006
3242.37	8.3643e+006
3241.89	8.39789e+006
3241.41	8.3971e+006
3240.93	8.37874e+006
3240.45	8.39199e+006
3239.96	8.43794e+006
3239.48	8.46812e+006
3239	8.46532e+006
3238.52	8.46761e+006
3238.03	8.49679e+006
3237.55	8.51914e+006
3237.07	8.50712e+006
3236.59	8.49256e+006
3236.1	8.5178e+006
3235.62	8.56883e+006
3235.14	8.60059e+006
3234.66	8.60494e+006
3234.18	8.61046e+006
3233.69	8.63045e+006
3233.21	8.65222e+006
3232.73	8.66922e+006
3232.25	8.68657e+006
3231.76	8.69851e+006
3231.28	8.69305e+006
3230.8	8.67822e+006
3230.32	8.67636e+006
3229.84	8.6927e+006
3229.35	8.71176e+006
3228.87	8.72292e+006
3228.39	8.72983e+006
3227.91	8.73828e+006
3227.42	8.75205e+006
3226.94	8.77499e+006
3226.46	8.80217e+006
3225.98	8.81845e+006
3225.49	8.82022e+006
3225.01	8.82476e+006
3224.53	8.84224e+006
3224.05	8.85634e+006
3223.57	8.85254e+006
3223.08	8.84595e+006
3222.6	8.85658e+006
3222.12	8.87524e+006
3221.64	8.88101e+006
3221.15	8.87562e+006
3220.67	8.87189e+006
3220.19	8.86502e+006
3219.71	8.84684e+006
3219.23	8.83429e+006
3218.74	8.84978e+006
3218.26	8.88295e+006
3217.78	8.904e+006
3217.3	8.90709e+006
3216.81	8.91037e+006
3216.33	8.92076e+006
3215.85	8.92874e+006
3215.37	8.93119e+006
3214.88	8.93059e+006
3214.4	8.9186e+006
3213.92	8.88892e+006
3213.44	8.85953e+006
3212.96	8.85457e+006
3212.47	8.87018e+006
3211.99	8.88363e+006
3211.51	8.88709e+006
3211.03	8.88656e+006
3210.54	8.8796e+006
3210.06	8.86397e+006
3209.58	8.85657e+006
3209.1	8.87148e+006
3208.61	8.88949e+006
3208.13	8.88342e+006
3207.65	8.86368e+006
3207.17	8.86133e+006
3206.69	8.8738e+006
3206.2	8.87019e+006
3205.72	8.84901e+006
3205.24	8.84503e+006
3204.76	8.86997e+006
3204.27	8.88928e+006
3203.79	8.87564e+006
3203.31	8.8506e+006
3202.83	8.84898e+006
3202.35	8.86805e+006
3201.86	8.87855e+006
3201.38	8.8705e+006
3200.9	8.86202e+006
3200.42	8.86772e+006
3199.93	8.87924e+006
3199.45	8.88064e+006
3198.97	8.87016e+006
3198.49	8.85898e+006
3198	8.85309e+006
3197.52	8.84567e+006
3197.04	8.83138e+006
3196.56	8.82093e+006
3196.08	8.83036e+006
3195.59	8.85722e+006
3195.11	8.88043e+006
3194.63	8.88663e+006
3194.15	8.8838e+006
3193.66	8.88351e+006
3193.18	8.88272e+006
3192.7	8.87368e+006
3192.22	8.86251e+006
3191.74	8.86501e+006
3191.25	8.88509e+006
3190.77	8.90545e+006
3190.29	8.90359e+006
3189.81	8.87727e+006
3189.32	8.85118e+006
3188.84	8.85202e+006
3188.36	8.87722e+006
3187.88	8.89937e+006
3187.39	8.90314e+006
3186.91	8.9002e+006
3186.43	8.90148e+006
3185.95	8.89844e+006
3185.47	8.88724e+006
3184.98	8.88635e+006
3184.5	8.90602e+006
3184.02	8.92219e+006
3183.54	8.91017e+006
3183.05	8.88527e+006
3182.57	8.87814e+006
3182.09	8.88697e+006
3181.61	8.8892e+006
3181.12	8.88462e+006
3180.64	8.88782e+006
3180.16	8.89088e+006
3179.68	8.87449e+006
3179.2	8.84661e+006
3178.71	8.82994e+006
3178.23	8.8208e+006
3177.75	8.80232e+006
3177.27	8.7875e+006
3176.78	8.80191e+006
3176.3	8.83147e+006
3175.82	8.83726e+006
3175.34	8.81884e+006
3174.86	8.8123e+006
3174.37	8.82628e+006
3173.89	8.83216e+006
3173.41	8.82106e+006
3172.93	8.81811e+006
3172.44	8.83167e+006
3171.96	8.83763e+006
3171.48	8.82595e+006
3171	8.81816e+006
3170.51	8.82706e+006
3170.03	8.83944e+006
3169.55	8.84698e+006
3169.07	8.85534e+006
3168.59	8.85824e+006
3168.1	8.84351e+006
3167.62	8.82728e+006
3167.14	8.8385e+006
3166.66	8.86768e+006
3166.17	8.87722e+006
3165.69	8.8643e+006
3165.21	8.86361e+006
3164.73	8.88377e+006
3164.25	8.8946e+006
3163.76	8.88664e+006
3163.28	8.88943e+006
3162.8	8.91581e+006
3162.32	8.93785e+006
3161.83	8.93591e+006
3161.35	8.92697e+006
3160.87	8.9276e+006
3160.39	8.93075e+006
3159.9	8.9339e+006
3159.42	8.94977e+006
3158.94	8.97523e+006
3158.46	8.988e+006
3157.98	8.98604e+006
3157.49	8.9924e+006
3157.01	9.0125e+006
3156.53	9.02562e+006
3156.05	9.02663e+006
3155.56	9.03537e+006
3155.08	9.05582e+006
3154.6	9.06645e+006
3154.12	9.06078e+006
3153.63	9.05973e+006
3153.15	9.07558e+006
3152.67	9.09919e+006
3152.19	9.12642e+006
3151.71	9.16023e+006
3151.22	9.18594e+006
3150.74	9.18381e+006
3150.26	9.16662e+006
3149.78	9.16552e+006
3149.29	9.18114e+006
3148.81	9.19018e+006
3148.33	9.19472e+006
3147.85	9.21792e+006
3147.37	9.25452e+006
3146.88	9.27546e+006
3146.4	9.27951e+006
3145.92	9.29083e+006
3145.44	9.30837e+006
3144.95	9.31016e+006
3144.47	9.30485e+006
3143.99	9.32267e+006
3143.51	9.35557e+006
3143.02	9.36473e+006
3142.54	9.35002e+006
3142.06	9.35222e+006
3141.58	9.38095e+006
3141.1	9.40159e+006
3140.61	9.40246e+006
3140.13	9.41388e+006
3139.65	9.44702e+006
3139.17	9.47313e+006
3138.68	9.47995e+006
3138.2	9.49227e+006
3137.72	9.51832e+006
3137.24	9.5306e+006
3136.75	9.52079e+006
3136.27	9.52153e+006
3135.79	9.54977e+006
3135.31	9.57556e+006
3134.83	9.57179e+006
3134.34	9.55408e+006
3133.86	9.54825e+006
3133.38	9.55412e+006
3132.9	9.56174e+006
3132.41	9.57219e+006
3131.93	9.58672e+006
3131.45	9.60265e+006
3130.97	9.62735e+006
3130.49	9.66776e+006
3130	9.70538e+006
3129.52	9.7148e+006
3129.04	9.70505e+006
3128.56	9.70626e+006
3128.07	9.7196e+006
3127.59	9.72196e+006
3127.11	9.71527e+006
3126.63	9.72453e+006
3126.14	9.74839e+006
3125.66	9.76006e+006
3125.18	9.7585e+006
3124.7	9.76963e+006
3124.22	9.79354e+006
3123.73	9.80092e+006
3123.25	9.78868e+006
3122.77	9.79039e+006
3122.29	9.82162e+006
3121.8	9.85993e+006
3121.32	9.88831e+006
3120.84	9.91501e+006
3120.36	9.94071e+006
3119.88	9.94894e+006
3119.39	9.94048e+006
3118.91	9.9391e+006
3118.43	9.95384e+006
3117.95	9.97034e+006
3117.46	9.98387e+006
3116.98	1.00046e+007
3116.5	1.00275e+007
3116.02	1.0035e+007
3115.53	1.00311e+007
3115.05	1.00359e+007
3114.57	1.00475e+007
3114.09	1.00473e+007
3113.61	1.00422e+007
3113.12	1.0059e+007
3112.64	1.00946e+007
3112.16	1.01166e+007
3111.68	1.01162e+007
3111.19	1.01174e+007
3110.71	1.0131e+007
3110.23	1.01424e+007
3109.75	1.01514e+007
3109.26	1.01785e+007
3108.78	1.02217e+007
3108.3	1.02492e+007
3107.82	1.0248e+007
3107.34	1.02428e+007
3106.85	1.0254e+007
3106.37	1.02715e+007
3105.89	1.02834e+007
3105.41	1.0296e+007
3104.92	1.03118e+007
3104.44	1.0316e+007
3103.96	1.03022e+007
3103.48	1.02888e+007
3103	1.02969e+007
3102.51	1.03247e+007
3102.03	1.03541e+007
3101.55	1.03696e+007
3101.07	1.03719e+007
3100.58	1.03767e+007
3100.1	1.03983e+007
3099.62	1.04288e+007
3099.14	1.04468e+007
3098.65	1.04526e+007
3098.17	1.04714e+007
3097.69	1.05077e+007
3097.21	1.0529e+007
3096.73	1.05139e+007
3096.24	1.0488e+007
3095.76	1.04837e+007
3095.28	1.04962e+007
3094.8	1.05079e+007
3094.31	1.05264e+007
3093.83	1.05602e+007
3093.35	1.05873e+007
3092.87	1.05901e+007
3092.39	1.05932e+007
3091.9	1.06234e+007
3091.42	1.06586e+007
3090.94	1.0663e+007
3090.46	1.06507e+007
3089.97	1.06621e+007
3089.49	1.06966e+007
3089.01	1.07193e+007
3088.53	1.07234e+007
3088.04	1.07331e+007
3087.56	1.07539e+007
3087.08	1.07681e+007
3086.6	1.07734e+007
3086.12	1.07822e+007
3085.63	1.07896e+007
3085.15	1.07866e+007
3084.67	1.07924e+007
3084.19	1.08287e+007
3083.7	1.0871e+007
3083.22	1.08758e+007
3082.74	1.08501e+007
3082.26	1.08443e+007
3081.77	1.08753e+007
3081.29	1.09083e+007
3080.81	1.09162e+007
3080.33	1.09121e+007
3079.85	1.09143e+007
3079.36	1.09214e+007
3078.88	1.09319e+007
3078.4	1.09503e+007
3077.92	1.09677e+007
3077.43	1.09677e+007
3076.95	1.09588e+007
3076.47	1.09669e+007
3075.99	1.09943e+007
3075.51	1.10182e+007
3075.02	1.10319e+007
3074.54	1.10513e+007
3074.06	1.10779e+007
3073.58	1.1092e+007
3073.09	1.10887e+007
3072.61	1.10879e+007
3072.13	1.10996e+007
3071.65	1.1111e+007
3071.16	1.11163e+007
3070.68	1.11269e+007
3070.2	1.11448e+007
3069.72	1.11554e+007
3069.24	1.11581e+007
3068.75	1.11714e+007
3068.27	1.1197e+007
3067.79	1.12089e+007
3067.31	1.11963e+007
3066.82	1.11861e+007
3066.34	1.12019e+007
3065.86	1.1226e+007
3065.38	1.12278e+007
3064.9	1.12118e+007
3064.41	1.12089e+007
3063.93	1.12325e+007
3063.45	1.12682e+007
3062.97	1.13024e+007
3062.48	1.1333e+007
3062	1.13558e+007
3061.52	1.13625e+007
3061.04	1.13593e+007
3060.55	1.13644e+007
3060.07	1.13807e+007
3059.59	1.13907e+007
3059.11	1.13879e+007
3058.63	1.13938e+007
3058.14	1.14249e+007
3057.66	1.14587e+007
3057.18	1.14607e+007
3056.7	1.14373e+007
3056.21	1.14318e+007
3055.73	1.1465e+007
3055.25	1.15088e+007
3054.77	1.15292e+007
3054.28	1.15288e+007
3053.8	1.15315e+007
3053.32	1.15475e+007
3052.84	1.15699e+007
3052.36	1.15911e+007
3051.87	1.16044e+007
3051.39	1.16042e+007
3050.91	1.1602e+007
3050.43	1.16204e+007
3049.94	1.16555e+007
3049.46	1.16692e+007
3048.98	1.16427e+007
3048.5	1.16143e+007
3048.02	1.16299e+007
3047.53	1.16765e+007
3047.05	1.17048e+007
3046.57	1.17045e+007
3046.09	1.1711e+007
3045.6	1.17416e+007
3045.12	1.17707e+007
3044.64	1.17778e+007
3044.16	1.17788e+007
3043.67	1.17939e+007
3043.19	1.18173e+007
3042.71	1.18362e+007
3042.23	1.18541e+007
3041.75	1.18776e+007
3041.26	1.18987e+007
3040.78	1.19075e+007
3040.3	1.19086e+007
3039.82	1.19112e+007
3039.33	1.19163e+007
3038.85	1.19235e+007
3038.37	1.19375e+007
3037.89	1.19579e+007
3037.41	1.19751e+007
3036.92	1.19854e+007
3036.44	1.19977e+007
3035.96	1.20165e+007
3035.48	1.20285e+007
3034.99	1.20212e+007
3034.51	1.20071e+007
3034.03	1.20119e+007
3033.55	1.20384e+007
3033.06	1.20582e+007
3032.58	1.20469e+007
3032.1	1.20183e+007
3031.62	1.20071e+007
3031.14	1.20219e+007
3030.65	1.20363e+007
3030.17	1.20319e+007
3029.69	1.20289e+007
3029.21	1.20527e+007
3028.72	1.20903e+007
3028.24	1.21058e+007
3027.76	1.20935e+007
3027.28	1.20813e+007
3026.79	1.20843e+007
3026.31	1.20879e+007
3025.83	1.20848e+007
3025.35	1.20925e+007
3024.87	1.21214e+007
3024.38	1.21506e+007
3023.9	1.21563e+007
3023.42	1.2144e+007
3022.94	1.21362e+007
3022.45	1.21434e+007
3021.97	1.21628e+007
3021.49	1.21897e+007
3021.01	1.22156e+007
3020.53	1.22295e+007
3020.04	1.22293e+007
3019.56	1.2225e+007
3019.08	1.22248e+007
3018.6	1.22293e+007
3018.11	1.22405e+007
3017.63	1.22583e+007
3017.15	1.22695e+007
3016.67	1.22627e+007
3016.18	1.22521e+007
3015.7	1.22636e+007
3015.22	1.22946e+007
3014.74	1.23165e+007
3014.26	1.23178e+007
3013.77	1.23156e+007
3013.29	1.23183e+007
3012.81	1.23141e+007
3012.33	1.23062e+007
3011.84	1.23218e+007
3011.36	1.23667e+007
3010.88	1.24033e+007
3010.4	1.23988e+007
3009.92	1.237e+007
3009.43	1.23571e+007
3008.95	1.23715e+007
3008.47	1.23929e+007
3007.99	1.2403e+007
3007.5	1.24012e+007
3007.02	1.23945e+007
3006.54	1.23898e+007
3006.06	1.23936e+007
3005.57	1.24083e+007
3005.09	1.2429e+007
3004.61	1.24444e+007
3004.13	1.24429e+007
3003.65	1.24245e+007
3003.16	1.24105e+007
3002.68	1.24251e+007
3002.2	1.24588e+007
3001.72	1.24737e+007
3001.23	1.24585e+007
3000.75	1.24505e+007
3000.27	1.24789e+007
2999.79	1.25148e+007
2999.3	1.2517e+007
2998.82	1.24983e+007
2998.34	1.25022e+007
2997.86	1.25316e+007
2997.38	1.25521e+007
2996.89	1.25522e+007
2996.41	1.25512e+007
2995.93	1.25551e+007
2995.45	1.25536e+007
2994.96	1.25546e+007
2994.48	1.25755e+007
2994	1.2605e+007
2993.52	1.26197e+007
2993.04	1.26294e+007
2992.55	1.26576e+007
2992.07	1.26887e+007
2991.59	1.26903e+007
2991.11	1.26765e+007
2990.62	1.26893e+007
2990.14	1.27234e+007
2989.66	1.27349e+007
2989.18	1.2722e+007
2988.69	1.2729e+007
2988.21	1.27631e+007
2987.73	1.27769e+007
2987.25	1.27514e+007
2986.77	1.27307e+007
2986.28	1.2751e+007
2985.8	1.27907e+007
2985.32	1.28176e+007
2984.84	1.28341e+007
2984.35	1.28494e+007
2983.87	1.28538e+007
2983.39	1.28458e+007
2982.91	1.28475e+007
2982.43	1.28693e+007
2981.94	1.28928e+007
2981.46	1.29041e+007
2980.98	1.29107e+007
2980.5	1.2917e+007
2980.01	1.29154e+007
2979.53	1.29103e+007
2979.05	1.29165e+007
2978.57	1.29308e+007
2978.08	1.29368e+007
2977.6	1.29375e+007
2977.12	1.29476e+007
2976.64	1.29597e+007
2976.16	1.29586e+007
2975.67	1.29596e+007
2975.19	1.2987e+007
2974.71	1.30207e+007
2974.23	1.30196e+007
2973.74	1.29921e+007
2973.26	1.29864e+007
2972.78	1.30112e+007
2972.3	1.30244e+007
2971.81	1.30079e+007
2971.33	1.29937e+007
2970.85	1.30052e+007
2970.37	1.30261e+007
2969.89	1.30395e+007
2969.4	1.30494e+007
2968.92	1.30533e+007
2968.44	1.30383e+007
2967.96	1.30146e+007
2967.47	1.3009e+007
2966.99	1.302e+007
2966.51	1.30206e+007
2966.03	1.30077e+007
2965.55	1.30052e+007
2965.06	1.3018e+007
2964.58	1.30292e+007
2964.1	1.30375e+007
2963.62	1.30527e+007
2963.13	1.30619e+007
2962.65	1.30497e+007
2962.17	1.30401e+007
2961.69	1.30642e+007
2961.2	1.3099e+007
2960.72	1.30997e+007
2960.24	1.30771e+007
2959.76	1.30761e+007
2959.28	1.30906e+007
2958.79	1.30793e+007
2958.31	1.30561e+007
2957.83	1.30779e+007
2957.35	1.31379e+007
2956.86	1.31626e+007
2956.38	1.31312e+007
2955.9	1.31096e+007
2955.42	1.31408e+007
2954.94	1.31853e+007
2954.45	1.32013e+007
2953.97	1.32074e+007
2953.49	1.32264e+007
2953.01	1.32397e+007
2952.52	1.3238e+007
2952.04	1.3251e+007
2951.56	1.3286e+007
2951.08	1.32996e+007
2950.59	1.32749e+007
2950.11	1.32637e+007
2949.63	1.33047e+007
2949.15	1.33552e+007
2948.67	1.33598e+007
2948.18	1.33375e+007
2947.7	1.33422e+007
2947.22	1.33752e+007
2946.74	1.33946e+007
2946.25	1.33895e+007
2945.77	1.33868e+007
2945.29	1.33987e+007
2944.81	1.34095e+007
2944.32	1.34093e+007
2943.84	1.34065e+007
2943.36	1.34103e+007
2942.88	1.34204e+007
2942.4	1.34314e+007
2941.91	1.34331e+007
2941.43	1.34177e+007
2940.95	1.33964e+007
2940.47	1.33925e+007
2939.98	1.34092e+007
2939.5	1.34232e+007
2939.02	1.34184e+007
2938.54	1.34041e+007
2938.06	1.33928e+007
2937.57	1.33829e+007
2937.09	1.33744e+007
2936.61	1.33773e+007
2936.13	1.33918e+007
2935.64	1.34014e+007
2935.16	1.33963e+007
2934.68	1.33841e+007
2934.2	1.33703e+007
2933.71	1.33507e+007
2933.23	1.333e+007
2932.75	1.33253e+007
2932.27	1.33398e+007
2931.79	1.33539e+007
2931.3	1.33528e+007
2930.82	1.3344e+007
2930.34	1.3339e+007
2929.86	1.33355e+007
2929.37	1.3328e+007
2928.89	1.33204e+007
2928.41	1.33166e+007
2927.93	1.33141e+007
2927.45	1.33097e+007
2926.96	1.33031e+007
2926.48	1.3292e+007
2926	1.32759e+007
2925.52	1.32657e+007
2925.03	1.32747e+007
2924.55	1.32992e+007
2924.07	1.3322e+007
2923.59	1.33335e+007
2923.1	1.33387e+007
2922.62	1.33436e+007
2922.14	1.3348e+007
2921.66	1.33501e+007
2921.18	1.33482e+007
2920.69	1.33416e+007
2920.21	1.33383e+007
2919.73	1.33525e+007
2919.25	1.33829e+007
2918.76	1.34056e+007
2918.28	1.34048e+007
2917.8	1.33982e+007
2917.32	1.34125e+007
2916.83	1.34446e+007
2916.35	1.34698e+007
2915.87	1.34819e+007
2915.39	1.34999e+007
2914.91	1.3537e+007
2914.42	1.35835e+007
2913.94	1.36241e+007
2913.46	1.36551e+007
2912.98	1.36815e+007
2912.49	1.37072e+007
2912.01	1.37333e+007
2911.53	1.37575e+007
2911.05	1.37776e+007
2910.57	1.37966e+007
2910.08	1.38199e+007
2909.6	1.38442e+007
2909.12	1.38611e+007
2908.64	1.38725e+007
2908.15	1.38917e+007
2907.67	1.39212e+007
2907.19	1.39471e+007
2906.71	1.39609e+007
2906.22	1.39731e+007
2905.74	1.39918e+007
2905.26	1.4008e+007
2904.78	1.40142e+007
2904.3	1.40212e+007
2903.81	1.40412e+007
2903.33	1.40674e+007
2902.85	1.4087e+007
2902.37	1.4101e+007
2901.88	1.41169e+007
2901.4	1.41327e+007
2900.92	1.41446e+007
2900.44	1.41608e+007
2899.96	1.41878e+007
2899.47	1.42132e+007
2898.99	1.42205e+007
2898.51	1.42159e+007
2898.03	1.42218e+007
2897.54	1.42455e+007
2897.06	1.42698e+007
2896.58	1.42783e+007
2896.1	1.42761e+007
2895.61	1.428e+007
2895.13	1.42965e+007
2894.65	1.43157e+007
2894.17	1.43263e+007
2893.69	1.4328e+007
2893.2	1.43296e+007
2892.72	1.43376e+007
2892.24	1.43516e+007
2891.76	1.43717e+007
2891.27	1.43989e+007
2890.79	1.44288e+007
2890.31	1.44513e+007
2889.83	1.44613e+007
2889.34	1.44639e+007
2888.86	1.44651e+007
2888.38	1.44667e+007
2887.9	1.44726e+007
2887.42	1.44867e+007
2886.93	1.45026e+007
2886.45	1.45073e+007
2885.97	1.45023e+007
2885.49	1.45062e+007
2885	1.45287e+007
2884.52	1.45565e+007
2884.04	1.45739e+007
2883.56	1.45811e+007
2883.08	1.45843e+007
2882.59	1.45839e+007
2882.11	1.45841e+007
2881.63	1.45945e+007
2881.15	1.46131e+007
2880.66	1.46244e+007
2880.18	1.46242e+007
2879.7	1.46267e+007
2879.22	1.46378e+007
2878.73	1.46461e+007
2878.25	1.4649e+007
2877.77	1.46606e+007
2877.29	1.46823e+007
2876.81	1.46938e+007
2876.32	1.46896e+007
2875.84	1.46928e+007
2875.36	1.47149e+007
2874.88	1.47346e+007
2874.39	1.47385e+007
2873.91	1.47463e+007
2873.43	1.47701e+007
2872.95	1.4783e+007
2872.47	1.4763e+007
2871.98	1.47348e+007
2871.5	1.4734e+007
2871.02	1.47554e+007
2870.54	1.47734e+007
2870.05	1.4786e+007
2869.57	1.4802e+007
2869.09	1.48101e+007
2868.61	1.4802e+007
2868.12	1.48017e+007
2867.64	1.48318e+007
2867.16	1.48689e+007
2866.68	1.48742e+007
2866.2	1.4852e+007
2865.71	1.48384e+007
2865.23	1.48461e+007
2864.75	1.48583e+007
2864.27	1.48644e+007
2863.78	1.48663e+007
2863.3	1.48606e+007
2862.82	1.48468e+007
2862.34	1.48414e+007
2861.85	1.48554e+007
2861.37	1.48713e+007
2860.89	1.48699e+007
2860.41	1.48627e+007
2859.93	1.48671e+007
2859.44	1.48724e+007
2858.96	1.48624e+007
2858.48	1.48495e+007
2858	1.48521e+007
2857.51	1.48584e+007
2857.03	1.48497e+007
2856.55	1.48405e+007
2856.07	1.48538e+007
2855.59	1.48756e+007
2855.1	1.48761e+007
2854.62	1.48604e+007
2854.14	1.48554e+007
2853.66	1.48584e+007
2853.17	1.48455e+007
2852.69	1.48217e+007
2852.21	1.48165e+007
2851.73	1.48314e+007
2851.24	1.4838e+007
2850.76	1.48312e+007
2850.28	1.48399e+007
2849.8	1.48745e+007
2849.32	1.49045e+007
2848.83	1.49069e+007
2848.35	1.49027e+007
2847.87	1.49233e+007
2847.39	1.49628e+007
2846.9	1.49912e+007
2846.42	1.50027e+007
2845.94	1.5025e+007
2845.46	1.50754e+007
2844.98	1.51319e+007
2844.49	1.51616e+007
2844.01	1.51678e+007
2843.53	1.51855e+007
2843.05	1.52283e+007
2842.56	1.52686e+007
2842.08	1.52828e+007
2841.6	1.529e+007
2841.12	1.53184e+007
2840.63	1.53561e+007
2840.15	1.53727e+007
2839.67	1.53737e+007
2839.19	1.5392e+007
2838.71	1.54325e+007
2838.22	1.54658e+007
2837.74	1.54778e+007
2837.26	1.54829e+007
2836.78	1.54871e+007
2836.29	1.54812e+007
2835.81	1.54746e+007
2835.33	1.5492e+007
2834.85	1.55281e+007
2834.36	1.55473e+007
2833.88	1.55393e+007
2833.4	1.55351e+007
2832.92	1.55542e+007
2832.44	1.55765e+007
2831.95	1.55798e+007
2831.47	1.55702e+007
2830.99	1.55612e+007
2830.51	1.55573e+007
2830.02	1.55682e+007
2829.54	1.56032e+007
2829.06	1.56439e+007
2828.58	1.5658e+007
2828.1	1.56491e+007
2827.61	1.56539e+007
2827.13	1.56833e+007
2826.65	1.57086e+007
2826.17	1.57136e+007
2825.68	1.57162e+007
2825.2	1.57266e+007
2824.72	1.57304e+007
2824.24	1.5725e+007
2823.75	1.57301e+007
2823.27	1.57471e+007
2822.79	1.57521e+007
2822.31	1.57457e+007
2821.83	1.57604e+007
2821.34	1.58022e+007
2820.86	1.58313e+007
2820.38	1.58243e+007
2819.9	1.58095e+007
2819.41	1.58148e+007
2818.93	1.58242e+007
2818.45	1.58171e+007
2817.97	1.58101e+007
2817.49	1.58268e+007
2817	1.58582e+007
2816.52	1.58817e+007
2816.04	1.58945e+007
2815.56	1.59037e+007
2815.07	1.59077e+007
2814.59	1.59078e+007
2814.11	1.59153e+007
2813.63	1.593e+007
2813.14	1.59363e+007
2812.66	1.59331e+007
2812.18	1.59406e+007
2811.7	1.59639e+007
2811.22	1.59813e+007
2810.73	1.59834e+007
2810.25	1.59921e+007
2809.77	1.6021e+007
2809.29	1.60488e+007
2808.8	1.60526e+007
2808.32	1.60425e+007
2807.84	1.60408e+007
2807.36	1.60471e+007
2806.87	1.60464e+007
2806.39	1.60368e+007
2805.91	1.60316e+007
2805.43	1.60408e+007
2804.95	1.6062e+007
2804.46	1.60828e+007
2803.98	1.60921e+007
2803.5	1.60947e+007
2803.02	1.6108e+007
2802.53	1.61339e+007
2802.05	1.61482e+007
2801.57	1.61384e+007
2801.09	1.61317e+007
2800.61	1.61583e+007
2800.12	1.62011e+007
2799.64	1.62186e+007
2799.16	1.62073e+007
2798.68	1.6202e+007
2798.19	1.62175e+007
2797.71	1.62328e+007
2797.23	1.62333e+007
2796.75	1.62317e+007
2796.26	1.62393e+007
2795.78	1.62487e+007
2795.3	1.62532e+007
2794.82	1.62597e+007
2794.34	1.62729e+007
2793.85	1.62871e+007
2793.37	1.6297e+007
2792.89	1.63024e+007
2792.41	1.63052e+007
2791.92	1.63131e+007
2791.44	1.63346e+007
2790.96	1.63604e+007
2790.48	1.63664e+007
2790	1.63527e+007
2789.51	1.63516e+007
2789.03	1.63754e+007
2788.55	1.63889e+007
2788.07	1.63651e+007
2787.58	1.63391e+007
2787.1	1.63601e+007
2786.62	1.6416e+007
2786.14	1.64517e+007
2785.65	1.64488e+007
2785.17	1.6437e+007
2784.69	1.64394e+007
2784.21	1.64522e+007
2783.73	1.64711e+007
2783.24	1.64938e+007
2782.76	1.65021e+007
2782.28	1.64828e+007
2781.8	1.64613e+007
2781.31	1.64755e+007
2780.83	1.65189e+007
2780.35	1.65495e+007
2779.87	1.65509e+007
2779.38	1.65471e+007
2778.9	1.65559e+007
2778.42	1.65682e+007
2777.94	1.65753e+007
2777.46	1.65838e+007
2776.97	1.6597e+007
2776.49	1.66076e+007
2776.01	1.66126e+007
2775.53	1.66151e+007
2775.04	1.66151e+007
2774.56	1.66146e+007
2774.08	1.66238e+007
2773.6	1.6644e+007
2773.12	1.66566e+007
2772.63	1.66504e+007
2772.15	1.66444e+007
2771.67	1.66579e+007
2771.19	1.66802e+007
2770.7	1.66924e+007
2770.22	1.67014e+007
2769.74	1.67197e+007
2769.26	1.6733e+007
2768.77	1.6723e+007
2768.29	1.67074e+007
2767.81	1.67176e+007
2767.33	1.67464e+007
2766.85	1.67591e+007
2766.36	1.67497e+007
2765.88	1.67467e+007
2765.4	1.67646e+007
2764.92	1.67853e+007
2764.43	1.67926e+007
2763.95	1.6793e+007
2763.47	1.67958e+007
2762.99	1.67987e+007
2762.51	1.68004e+007
2762.02	1.68067e+007
2761.54	1.68169e+007
2761.06	1.68209e+007
2760.58	1.6818e+007
2760.09	1.68231e+007
2759.61	1.6845e+007
2759.13	1.68708e+007
2758.65	1.68809e+007
2758.16	1.68762e+007
2757.68	1.68787e+007
2757.2	1.69027e+007
2756.72	1.69322e+007
2756.24	1.69388e+007
2755.75	1.69213e+007
2755.27	1.69099e+007
2754.79	1.69245e+007
2754.31	1.69468e+007
2753.82	1.69527e+007
2753.34	1.69503e+007
2752.86	1.69624e+007
2752.38	1.69851e+007
2751.89	1.69959e+007
2751.41	1.69942e+007
2750.93	1.7e+007
2750.45	1.70146e+007
2749.97	1.70179e+007
2749.48	1.70092e+007
2749	1.70137e+007
2748.52	1.70412e+007
2748.04	1.70663e+007
2747.55	1.70658e+007
2747.07	1.70524e+007
2746.59	1.70547e+007
2746.11	1.70781e+007
2745.63	1.71003e+007
2745.14	1.71015e+007
2744.66	1.70891e+007
2744.18	1.70888e+007
2743.7	1.71105e+007
2743.21	1.71334e+007
2742.73	1.71361e+007
2742.25	1.71328e+007
2741.77	1.71526e+007
2741.28	1.71872e+007
2740.8	1.7198e+007
2740.32	1.71788e+007
2739.84	1.71685e+007
2739.36	1.71876e+007
2738.87	1.72081e+007
2738.39	1.72055e+007
2737.91	1.71968e+007
2737.43	1.72009e+007
2736.94	1.72079e+007
2736.46	1.72145e+007
2735.98	1.72403e+007
2735.5	1.72785e+007
2735.02	1.72872e+007
2734.53	1.72617e+007
2734.05	1.72561e+007
2733.57	1.7291e+007
2733.09	1.7309e+007
2732.6	1.72741e+007
2732.12	1.72456e+007
2731.64	1.72823e+007
2731.16	1.73402e+007
2730.67	1.73483e+007
2730.19	1.73273e+007
2729.71	1.73403e+007
2729.23	1.73752e+007
2728.75	1.73749e+007
2728.26	1.73492e+007
2727.78	1.73544e+007
2727.3	1.7387e+007
2726.82	1.73958e+007
2726.33	1.73835e+007
2725.85	1.73981e+007
2725.37	1.74337e+007
2724.89	1.7437e+007
2724.4	1.74087e+007
2723.92	1.74062e+007
2723.44	1.74423e+007
2722.96	1.74676e+007
2722.48	1.74613e+007
2721.99	1.74567e+007
2721.51	1.74702e+007
2721.03	1.74777e+007
2720.55	1.74735e+007
2720.06	1.7483e+007
2719.58	1.75064e+007
2719.1	1.75136e+007
2718.62	1.75031e+007
2718.14	1.7506e+007
2717.65	1.75271e+007
2717.17	1.75388e+007
2716.69	1.75361e+007
2716.21	1.75414e+007
2715.72	1.75557e+007
2715.24	1.75596e+007
2714.76	1.75592e+007
2714.28	1.75773e+007
2713.79	1.76017e+007
2713.31	1.75998e+007
2712.83	1.75788e+007
2712.35	1.75769e+007
2711.87	1.75994e+007
2711.38	1.76172e+007
2710.9	1.76234e+007
2710.42	1.76382e+007
2709.94	1.76604e+007
2709.45	1.76672e+007
2708.97	1.76603e+007
2708.49	1.76639e+007
2708.01	1.76802e+007
2707.52	1.76887e+007
2707.04	1.76869e+007
2706.56	1.76903e+007
2706.08	1.77005e+007
2705.6	1.77088e+007
2705.11	1.77189e+007
2704.63	1.77338e+007
2704.15	1.77397e+007
2703.67	1.77326e+007
2703.18	1.7736e+007
2702.7	1.77585e+007
2702.22	1.77692e+007
2701.74	1.77516e+007
2701.26	1.77418e+007
2700.77	1.77687e+007
2700.29	1.77985e+007
2699.81	1.77891e+007
2699.33	1.77625e+007
2698.84	1.77671e+007
2698.36	1.78012e+007
2697.88	1.78287e+007
2697.4	1.78408e+007
2696.91	1.78495e+007
2696.43	1.78496e+007
2695.95	1.78378e+007
2695.47	1.78396e+007
2694.99	1.78699e+007
2694.5	1.78984e+007
2694.02	1.78979e+007
2693.54	1.78904e+007
2693.06	1.79024e+007
2692.57	1.79163e+007
2692.09	1.79128e+007
2691.61	1.79142e+007
2691.13	1.79373e+007
2690.65	1.795e+007
2690.16	1.79284e+007
2689.68	1.79073e+007
2689.2	1.7922e+007
2688.72	1.79484e+007
2688.23	1.79564e+007
2687.75	1.7967e+007
2687.27	1.79991e+007
2686.79	1.80154e+007
2686.3	1.7988e+007
2685.82	1.79625e+007
2685.34	1.79858e+007
2684.86	1.80237e+007
2684.38	1.80223e+007
2683.89	1.8004e+007
2683.41	1.80205e+007
2682.93	1.80565e+007
2682.45	1.80619e+007
2681.96	1.80445e+007
2681.48	1.80499e+007
2681	1.80753e+007
2680.52	1.80834e+007
2680.03	1.8076e+007
2679.55	1.8084e+007
2679.07	1.81037e+007
2678.59	1.81096e+007
2678.11	1.81103e+007
2677.62	1.813e+007
2677.14	1.81547e+007
2676.66	1.81556e+007
2676.18	1.81437e+007
2675.69	1.81492e+007
2675.21	1.81681e+007
2674.73	1.81787e+007
2674.25	1.81854e+007
2673.77	1.81985e+007
2673.28	1.82031e+007
2672.8	1.81914e+007
2672.32	1.81929e+007
2671.84	1.82268e+007
2671.35	1.82612e+007
2670.87	1.82628e+007
2670.39	1.82504e+007
2669.91	1.8254e+007
2669.42	1.82632e+007
2668.94	1.82613e+007
2668.46	1.8265e+007
2667.98	1.82854e+007
2667.5	1.82945e+007
2667.01	1.82788e+007
2666.53	1.82765e+007
2666.05	1.83119e+007
2665.57	1.83441e+007
2665.08	1.83373e+007
2664.6	1.8326e+007
2664.12	1.835e+007
2663.64	1.83773e+007
2663.16	1.8361e+007
2662.67	1.83267e+007
2662.19	1.83292e+007
2661.71	1.83633e+007
2661.23	1.83872e+007
2660.74	1.84001e+007
2660.26	1.84252e+007
2659.78	1.8447e+007
2659.3	1.84363e+007
2658.81	1.84136e+007
2658.33	1.84208e+007
2657.85	1.84475e+007
2657.37	1.84508e+007
2656.89	1.84318e+007
2656.4	1.8431e+007
2655.92	1.84582e+007
2655.44	1.84836e+007
2654.96	1.84918e+007
2654.47	1.84956e+007
2653.99	1.85003e+007
2653.51	1.84994e+007
2653.03	1.84983e+007
2652.54	1.85082e+007
2652.06	1.85205e+007
2651.58	1.85206e+007
2651.1	1.85163e+007
2650.62	1.85248e+007
2650.13	1.85437e+007
2649.65	1.85603e+007
2649.17	1.85732e+007
2648.69	1.85847e+007
2648.2	1.85876e+007
2647.72	1.85823e+007
2647.24	1.8587e+007
2646.76	1.86098e+007
2646.28	1.86297e+007
2645.79	1.86265e+007
2645.31	1.86112e+007
2644.83	1.86063e+007
2644.35	1.86158e+007
2643.86	1.86311e+007
2643.38	1.86487e+007
2642.9	1.86658e+007
2642.42	1.86744e+007
2641.93	1.86732e+007
2641.45	1.86731e+007
2640.97	1.86813e+007
2640.49	1.86947e+007
2640.01	1.87103e+007
2639.52	1.87256e+007
2639.04	1.87318e+007
2638.56	1.87266e+007
2638.08	1.87261e+007
2637.59	1.8744e+007
2637.11	1.87646e+007
2636.63	1.87657e+007
2636.15	1.87566e+007
2635.67	1.87629e+007
2635.18	1.87839e+007
2634.7	1.8798e+007
2634.22	1.88023e+007
2633.74	1.88105e+007
2633.25	1.88199e+007
2632.77	1.88183e+007
2632.29	1.88161e+007
2631.81	1.88337e+007
2631.32	1.88604e+007
2630.84	1.88662e+007
2630.36	1.88502e+007
2629.88	1.88419e+007
2629.4	1.88559e+007
2628.91	1.88771e+007
2628.43	1.88899e+007
2627.95	1.88938e+007
2627.47	1.8893e+007
2626.98	1.88935e+007
2626.5	1.89044e+007
2626.02	1.89226e+007
2625.54	1.89306e+007
2625.05	1.89267e+007
2624.57	1.89335e+007
2624.09	1.89587e+007
2623.61	1.89784e+007
2623.13	1.89788e+007
2622.64	1.8981e+007
2622.16	1.8998e+007
2621.68	1.90072e+007
2621.2	1.89968e+007
2620.71	1.89953e+007
2620.23	1.90196e+007
2619.75	1.90358e+007
2619.27	1.90146e+007
2618.79	1.89846e+007
2618.3	1.89868e+007
2617.82	1.9015e+007
2617.34	1.90426e+007
2616.86	1.90684e+007
2616.37	1.90939e+007
2615.89	1.90982e+007
2615.41	1.90777e+007
2614.93	1.9069e+007
2614.44	1.90905e+007
2613.96	1.91081e+007
2613.48	1.90992e+007
2613	1.90964e+007
2612.52	1.91235e+007
2612.03	1.91453e+007
2611.55	1.91343e+007
2611.07	1.91267e+007
2610.59	1.91549e+007
2610.1	1.91824e+007
2609.62	1.91698e+007
2609.14	1.915e+007
2608.66	1.91684e+007
2608.18	1.92021e+007
2607.69	1.92058e+007
2607.21	1.9192e+007
2606.73	1.91956e+007
2606.25	1.92058e+007
2605.76	1.92008e+007
2605.28	1.92032e+007
2604.8	1.92336e+007
2604.32	1.92566e+007
2603.83	1.92418e+007
2603.35	1.92302e+007
2602.87	1.92674e+007
2602.39	1.93166e+007
2601.91	1.93154e+007
2601.42	1.92796e+007
2600.94	1.92714e+007
2600.46	1.92985e+007
2599.98	1.93192e+007
2599.49	1.93213e+007
2599.01	1.93249e+007
2598.53	1.9332e+007
2598.05	1.93332e+007
2597.56	1.934e+007
2597.08	1.93598e+007
2596.6	1.93687e+007
2596.12	1.93565e+007
2595.64	1.93575e+007
2595.15	1.93896e+007
2594.67	1.94117e+007
2594.19	1.9394e+007
2593.71	1.93784e+007
2593.22	1.94064e+007
2592.74	1.94425e+007
2592.26	1.94358e+007
2591.78	1.94105e+007
2591.3	1.94216e+007
2590.81	1.94606e+007
2590.33	1.94786e+007
2589.85	1.94701e+007
2589.37	1.9466e+007
2588.88	1.94709e+007
2588.4	1.94697e+007
2587.92	1.94704e+007
2587.44	1.94862e+007
2586.95	1.95008e+007
2586.47	1.94982e+007
2585.99	1.94987e+007
2585.51	1.95209e+007
2585.03	1.95432e+007
2584.54	1.95435e+007
2584.06	1.95401e+007
2583.58	1.95518e+007
2583.1	1.95586e+007
2582.61	1.95446e+007
2582.13	1.95366e+007
2581.65	1.95571e+007
2581.17	1.95817e+007
2580.69	1.95851e+007
2580.2	1.95854e+007
2579.72	1.96009e+007
2579.24	1.96095e+007
2578.76	1.95964e+007
2578.27	1.95916e+007
2577.79	1.96163e+007
2577.31	1.96368e+007
2576.83	1.96233e+007
2576.34	1.96074e+007
2575.86	1.96307e+007
2575.38	1.96739e+007
2574.9	1.96901e+007
2574.42	1.96772e+007
2573.93	1.96685e+007
2573.45	1.96756e+007
2572.97	1.96841e+007
2572.49	1.96888e+007
2572	1.96977e+007
2571.52	1.97134e+007
2571.04	1.97308e+007
2570.56	1.97433e+007
2570.07	1.97437e+007
2569.59	1.97365e+007
2569.11	1.97446e+007
2568.63	1.9776e+007
2568.15	1.97983e+007
2567.66	1.97834e+007
2567.18	1.97591e+007
2566.7	1.977e+007
2566.22	1.98029e+007
2565.73	1.98117e+007
2565.25	1.97981e+007
2564.77	1.98009e+007
2564.29	1.98187e+007
2563.81	1.98172e+007
2563.32	1.9803e+007
2562.84	1.98154e+007
2562.36	1.98498e+007
2561.88	1.98653e+007
2561.39	1.98632e+007
2560.91	1.98797e+007
2560.43	1.9906e+007
2559.95	1.99013e+007
2559.46	1.98797e+007
2558.98	1.98945e+007
2558.5	1.9937e+007
2558.02	1.99442e+007
2557.54	1.99085e+007
2557.05	1.98898e+007
2556.57	1.99103e+007
2556.09	1.99297e+007
2555.61	1.99326e+007
2555.12	1.99474e+007
2554.64	1.99711e+007
2554.16	1.99668e+007
2553.68	1.99481e+007
2553.2	1.99698e+007
2552.71	2.00245e+007
2552.23	2.00427e+007
2551.75	2.00117e+007
2551.27	1.99963e+007
2550.78	2.00225e+007
2550.3	2.00385e+007
2549.82	2.00182e+007
2549.34	2.0007e+007
2548.85	2.00321e+007
2548.37	2.00558e+007
2547.89	2.00534e+007
2547.41	2.00559e+007
2546.93	2.00817e+007
2546.44	2.00992e+007
2545.96	2.00906e+007
2545.48	2.00851e+007
2545	2.00998e+007
2544.51	2.01106e+007
2544.03	2.01067e+007
2543.55	2.01121e+007
2543.07	2.0133e+007
2542.58	2.01411e+007
2542.1	2.01282e+007
2541.62	2.01218e+007
2541.14	2.01335e+007
2540.66	2.01444e+007
2540.17	2.01491e+007
2539.69	2.01625e+007
2539.21	2.01798e+007
2538.73	2.0182e+007
2538.24	2.01796e+007
2537.76	2.01971e+007
2537.28	2.02225e+007
2536.8	2.02254e+007
2536.32	2.02156e+007
2535.83	2.02254e+007
2535.35	2.02473e+007
2534.87	2.02515e+007
2534.39	2.02476e+007
2533.9	2.02664e+007
2533.42	2.02954e+007
2532.94	2.0297e+007
2532.46	2.02773e+007
2531.97	2.02733e+007
2531.49	2.02861e+007
2531.01	2.02886e+007
2530.53	2.02834e+007
2530.05	2.02914e+007
2529.56	2.03025e+007
2529.08	2.02975e+007
2528.6	2.02968e+007
2528.12	2.03259e+007
2527.63	2.03596e+007
2527.15	2.03614e+007
2526.67	2.03498e+007
2526.19	2.03619e+007
2525.71	2.03827e+007
2525.22	2.03786e+007
2524.74	2.03693e+007
2524.26	2.03922e+007
2523.78	2.04253e+007
2523.29	2.04207e+007
2522.81	2.03902e+007
2522.33	2.03849e+007
2521.85	2.04108e+007
2521.36	2.0432e+007
2520.88	2.04383e+007
2520.4	2.04454e+007
2519.92	2.045e+007
2519.44	2.04426e+007
2518.95	2.04415e+007
2518.47	2.04609e+007
2517.99	2.04759e+007
2517.51	2.04672e+007
2517.02	2.04638e+007
2516.54	2.04896e+007
2516.06	2.05114e+007
2515.58	2.04964e+007
2515.09	2.0475e+007
2514.61	2.04866e+007
2514.13	2.05088e+007
2513.65	2.0505e+007
2513.17	2.04939e+007
2512.68	2.05089e+007
2512.2	2.05318e+007
2511.72	2.05321e+007
2511.24	2.05292e+007
2510.75	2.05515e+007
2510.27	2.05761e+007
2509.79	2.05717e+007
2509.31	2.05609e+007
2508.83	2.05772e+007
2508.34	2.06017e+007
2507.86	2.06011e+007
2507.38	2.05892e+007
2506.9	2.05931e+007
2506.41	2.0602e+007
2505.93	2.06005e+007
2505.45	2.06092e+007
2504.97	2.06398e+007
2504.48	2.06582e+007
2504	2.06431e+007
2503.52	2.06335e+007
2503.04	2.06642e+007
2502.56	2.07041e+007
2502.07	2.07109e+007
2501.59	2.07003e+007
2501.11	2.07052e+007
2500.63	2.07139e+007
2500.14	2.07024e+007
2499.66	2.06862e+007
2499.18	2.06907e+007
2498.7	2.07072e+007
2498.22	2.07204e+007
2497.73	2.07397e+007
2497.25	2.07674e+007
2496.77	2.07792e+007
2496.29	2.07669e+007
2495.8	2.07587e+007
2495.32	2.07701e+007
2494.84	2.07802e+007
2494.36	2.07794e+007
2493.87	2.07877e+007
2493.39	2.08073e+007
2492.91	2.08131e+007
2492.43	2.08067e+007
2491.95	2.0821e+007
2491.46	2.08552e+007
2490.98	2.08694e+007
2490.5	2.08568e+007
2490.02	2.08563e+007
2489.53	2.08791e+007
2489.05	2.08906e+007
2488.57	2.08805e+007
2488.09	2.08816e+007
2487.6	2.0904e+007
2487.12	2.09172e+007
2486.64	2.09116e+007
2486.16	2.09116e+007
2485.68	2.09212e+007
2485.19	2.09215e+007
2484.71	2.09217e+007
2484.23	2.09457e+007
2483.75	2.09723e+007
2483.26	2.09612e+007
2482.78	2.09308e+007
2482.3	2.09332e+007
2481.82	2.09652e+007
2481.34	2.09819e+007
2480.85	2.09803e+007
2480.37	2.0988e+007
2479.89	2.09928e+007
2479.41	2.09723e+007
2478.92	2.09641e+007
2478.44	2.10097e+007
2477.96	2.10595e+007
2477.48	2.10424e+007
2476.99	2.0995e+007
2476.51	2.10048e+007
2476.03	2.10555e+007
2475.55	2.10593e+007
2475.07	2.1021e+007
2474.58	2.10282e+007
2474.1	2.10886e+007
2473.62	2.11159e+007
2473.14	2.10834e+007
2472.65	2.10589e+007
2472.17	2.10771e+007
2471.69	2.10971e+007
2471.21	2.10997e+007
2470.73	2.11124e+007
2470.24	2.11305e+007
2469.76	2.1121e+007
2469.28	2.11042e+007
2468.8	2.11296e+007
2468.31	2.11764e+007
2467.83	2.11828e+007
2467.35	2.11602e+007
2466.87	2.11703e+007
2466.38	2.1206e+007
2465.9	2.12074e+007
2465.42	2.11789e+007
2464.94	2.11781e+007
2464.46	2.12048e+007
2463.97	2.12112e+007
2463.49	2.12043e+007
2463.01	2.12272e+007
2462.53	2.12605e+007
2462.04	2.12514e+007
2461.56	2.12183e+007
2461.08	2.12198e+007
2460.6	2.1247e+007
2460.11	2.12508e+007
2459.63	2.12439e+007
2459.15	2.12689e+007
2458.67	2.13043e+007
2458.19	2.13037e+007
2457.7	2.12885e+007
2457.22	2.13009e+007
2456.74	2.1315e+007
2456.26	2.12954e+007
2455.77	2.12834e+007
2455.29	2.13197e+007
2454.81	2.13531e+007
2454.33	2.1334e+007
2453.85	2.13194e+007
2453.36	2.13676e+007
2452.88	2.14152e+007
2452.4	2.13868e+007
2451.92	2.13402e+007
2451.43	2.13628e+007
2450.95	2.14116e+007
2450.47	2.14018e+007
2449.99	2.137e+007
2449.5	2.13953e+007
2449.02	2.14418e+007
2448.54	2.14325e+007
2448.06	2.14033e+007
2447.58	2.14274e+007
2447.09	2.14648e+007
2446.61	2.14416e+007
2446.13	2.14021e+007
2445.65	2.14255e+007
2445.16	2.14701e+007
2444.68	2.14569e+007
2444.2	2.14276e+007
2443.72	2.14599e+007
2443.24	2.15079e+007
2442.75	2.14903e+007
2442.27	2.14548e+007
2441.79	2.14902e+007
2441.31	2.15525e+007
2440.82	2.15476e+007
2440.34	2.15092e+007
2439.86	2.15274e+007
2439.38	2.15748e+007
2438.89	2.15695e+007
2438.41	2.15399e+007
2437.93	2.15616e+007
2437.45	2.16012e+007
2436.97	2.15837e+007
2436.48	2.15446e+007
2436	2.15593e+007
2435.52	2.15942e+007
2435.04	2.15798e+007
2434.55	2.15544e+007
2434.07	2.15864e+007
2433.59	2.16326e+007
2433.11	2.16211e+007
2432.62	2.15936e+007
2432.14	2.16199e+007
2431.66	2.16579e+007
2431.18	2.1641e+007
2430.7	2.16129e+007
2430.21	2.16376e+007
2429.73	2.16689e+007
2429.25	2.16496e+007
2428.77	2.16367e+007
2428.28	2.16886e+007
2427.8	2.17356e+007
2427.32	2.1705e+007
2426.84	2.16636e+007
2426.36	2.16934e+007
2425.87	2.17382e+007
2425.39	2.17184e+007
2424.91	2.16839e+007
2424.43	2.17069e+007
2423.94	2.17396e+007
2423.46	2.17208e+007
2422.98	2.17066e+007
2422.5	2.17527e+007
2422.01	2.17914e+007
2421.53	2.17611e+007
2421.05	2.17342e+007
2420.57	2.17778e+007
2420.09	2.18193e+007
2419.6	2.17895e+007
2419.12	2.176e+007
2418.64	2.18002e+007
2418.16	2.18378e+007
2417.67	2.1805e+007
2417.19	2.17782e+007
2416.71	2.18295e+007
2416.23	2.1882e+007
2415.75	2.18577e+007
2415.26	2.18266e+007
2414.78	2.18638e+007
2414.3	2.19028e+007
2413.82	2.18745e+007
2413.33	2.18461e+007
2412.85	2.18836e+007
2412.37	2.19196e+007
2411.89	2.1893e+007
2411.4	2.18718e+007
2410.92	2.19106e+007
2410.44	2.19376e+007
2409.96	2.19042e+007
2409.48	2.189e+007
2408.99	2.19405e+007
2408.51	2.19663e+007
2408.03	2.1921e+007
2407.55	2.19037e+007
2407.06	2.19686e+007
2406.58	2.20139e+007
2406.1	2.19774e+007
2405.62	2.19538e+007
2405.13	2.20034e+007
2404.65	2.20338e+007
2404.17	2.19917e+007
2403.69	2.19739e+007
2403.21	2.20286e+007
2402.72	2.20492e+007
2402.24	2.19868e+007
2401.76	2.19621e+007
2401.28	2.20397e+007
2400.79	2.20986e+007
2400.31	2.20567e+007
2399.83	2.20168e+007
2399.35	2.20627e+007
2398.87	2.21096e+007
2398.38	2.20865e+007
2397.9	2.20698e+007
2397.42	2.21149e+007
2396.94	2.21445e+007
2396.45	2.21145e+007
2395.97	2.21027e+007
2395.49	2.21409e+007
2395.01	2.21502e+007
2394.52	2.21166e+007
2394.04	2.2131e+007
2393.56	2.2194e+007
2393.08	2.21965e+007
2392.6	2.21417e+007
2392.11	2.21553e+007
2391.63	2.22371e+007
2391.15	2.22497e+007
2390.67	2.21867e+007
2390.18	2.21876e+007
2389.7	2.22588e+007
2389.22	2.22606e+007
2388.74	2.21908e+007
2388.26	2.21867e+007
2387.77	2.22295e+007
2387.29	2.21633e+007
2386.81	2.20183e+007
2386.33	2.198e+007
2385.84	2.20251e+007
2385.36	2.19452e+007
2384.88	2.17388e+007
2384.4	2.16023e+007
2383.91	2.15273e+007
2383.43	2.13104e+007
2382.95	2.09712e+007
2382.47	2.07294e+007
2381.99	2.05575e+007
2381.5	2.02157e+007
2381.02	1.9737e+007
2380.54	1.93773e+007
2380.06	1.90757e+007
2379.57	1.85281e+007
2379.09	1.78341e+007
2378.61	1.74333e+007
2378.13	1.7294e+007
2377.64	1.68532e+007
2377.16	1.59692e+007
2376.68	1.52329e+007
2376.2	1.5013e+007
2375.72	1.48608e+007
2375.23	1.42867e+007
2374.75	1.35324e+007
2374.27	1.30707e+007
2373.79	1.28282e+007
2373.3	1.24386e+007
2372.82	1.19028e+007
2372.34	1.14796e+007
2371.86	1.11822e+007
2371.38	1.08341e+007
2370.89	1.04347e+007
2370.41	1.01006e+007
2369.93	9.80825e+006
2369.45	9.48222e+006
2368.96	9.17567e+006
2368.48	8.93789e+006
2368	8.68726e+006
2367.52	8.39053e+006
2367.03	8.15612e+006
2366.55	8.01021e+006
2366.07	7.82217e+006
2365.59	7.56617e+006
2365.11	7.38382e+006
2364.62	7.29337e+006
2364.14	7.14418e+006
2363.66	6.9415e+006
2363.18	6.8709e+006
2362.69	6.91734e+006
2362.21	6.84093e+006
2361.73	6.62661e+006
2361.25	6.55063e+006
2360.77	6.68411e+006
2360.28	6.75269e+006
2359.8	6.62847e+006
2359.32	6.53855e+006
2358.84	6.62817e+006
2358.35	6.73103e+006
2357.87	6.73999e+006
2357.39	6.80807e+006
2356.91	7.01729e+006
2356.42	7.22166e+006
2355.94	7.35428e+006
2355.46	7.52789e+006
2354.98	7.74698e+006
2354.5	7.90527e+006
2354.01	8.10521e+006
2353.53	8.5448e+006
2353.05	9.08487e+006
2352.57	9.43057e+006
2352.08	9.72139e+006
2351.6	1.03428e+007
2351.12	1.11714e+007
2350.64	1.17376e+007
2350.15	1.2188e+007
2349.67	1.32025e+007
2349.19	1.47114e+007
2348.71	1.5609e+007
2348.23	1.52129e+007
2347.74	1.42022e+007
2347.26	1.35214e+007
2346.78	1.30804e+007
2346.3	1.22674e+007
2345.81	1.11691e+007
2345.33	1.04303e+007
2344.85	1.02077e+007
2344.37	1.00539e+007
2343.89	9.72892e+006
2343.4	9.46592e+006
2342.92	9.43247e+006
2342.44	9.46134e+006
2341.96	9.39303e+006
2341.47	9.29721e+006
2340.99	9.26234e+006
2340.51	9.2372e+006
2340.03	9.16984e+006
2339.54	9.12969e+006
2339.06	9.21059e+006
2338.58	9.38792e+006
2338.1	9.52219e+006
2337.62	9.50929e+006
2337.13	9.4154e+006
2336.65	9.3993e+006
2336.17	9.48932e+006
2335.69	9.56823e+006
2335.2	9.61542e+006
2334.72	9.75052e+006
2334.24	9.94841e+006
2333.76	9.99027e+006
2333.28	9.84677e+006
2332.79	9.78403e+006
2332.31	9.89709e+006
2331.83	9.92615e+006
2331.35	9.77794e+006
2330.86	9.7655e+006
2330.38	1.00113e+007
2329.9	1.01446e+007
2329.42	1.00014e+007
2328.93	1.00294e+007
2328.45	1.04753e+007
2327.97	1.08234e+007
2327.49	1.06961e+007
2327.01	1.06242e+007
2326.52	1.11083e+007
2326.04	1.16127e+007
2325.56	1.1476e+007
2325.08	1.11587e+007
2324.59	1.14293e+007
2324.11	1.19158e+007
2323.63	1.17889e+007
2323.15	1.13782e+007
2322.66	1.16277e+007
2322.18	1.23149e+007
2321.7	1.24156e+007
2321.22	1.2022e+007
2320.74	1.2194e+007
2320.25	1.29567e+007
2319.77	1.32369e+007
2319.29	1.29162e+007
2318.81	1.30955e+007
2318.32	1.39911e+007
2317.84	1.44518e+007
2317.36	1.41109e+007
2316.88	1.41284e+007
2316.4	1.50257e+007
2315.91	1.56397e+007
2315.43	1.5241e+007
2314.95	1.4917e+007
2314.47	1.55986e+007
2313.98	1.6344e+007
2313.5	1.60604e+007
2313.02	1.54988e+007
2312.54	1.58829e+007
2312.05	1.67339e+007
2311.57	1.68305e+007
2311.09	1.64224e+007
2310.61	1.66585e+007
2310.13	1.74417e+007
2309.64	1.76784e+007
2309.16	1.73153e+007
2308.68	1.73737e+007
2308.2	1.80583e+007
2307.71	1.84633e+007
2307.23	1.82678e+007
2306.75	1.82394e+007
2306.27	1.87697e+007
2305.79	1.92163e+007
2305.3	1.91276e+007
2304.82	1.90181e+007
2304.34	1.93988e+007
2303.86	1.9913e+007
2303.37	2.0003e+007
2302.89	1.98017e+007
2302.41	1.98157e+007
2301.93	2.01342e+007
2301.44	2.04156e+007
2300.96	2.04419e+007
2300.48	2.03575e+007
2300	2.04283e+007
2299.52	2.07118e+007
2299.03	2.09695e+007
2298.55	2.09582e+007
2298.07	2.08092e+007
2297.59	2.08952e+007
2297.1	2.12441e+007
2296.62	2.14365e+007
2296.14	2.12763e+007
2295.66	2.11489e+007
2295.17	2.13942e+007
2294.69	2.17342e+007
2294.21	2.17549e+007
2293.73	2.15977e+007
2293.25	2.16613e+007
2292.76	2.19e+007
2292.28	2.19666e+007
2291.8	2.18636e+007
2291.32	2.19043e+007
2290.83	2.21287e+007
2290.35	2.22621e+007
2289.87	2.22172e+007
2289.39	2.2196e+007
2288.91	2.23001e+007
2288.42	2.24137e+007
2287.94	2.24748e+007
2287.46	2.25468e+007
2286.98	2.26283e+007
2286.49	2.26602e+007
2286.01	2.26881e+007
2285.53	2.27898e+007
2285.05	2.29012e+007
2284.56	2.29257e+007
2284.08	2.29254e+007
2283.6	2.30003e+007
2283.12	2.30868e+007
2282.64	2.30795e+007
2282.15	2.30362e+007
2281.67	2.30571e+007
2281.19	2.30863e+007
2280.71	2.30335e+007
2280.22	2.29635e+007
2279.74	2.29719e+007
2279.26	2.29996e+007
2278.78	2.29605e+007
2278.29	2.29185e+007
2277.81	2.29523e+007
2277.33	2.29794e+007
2276.85	2.29054e+007
2276.37	2.28199e+007
2275.88	2.28523e+007
2275.4	2.29458e+007
2274.92	2.2956e+007
2274.44	2.28817e+007
2273.95	2.28358e+007
2273.47	2.28601e+007
2272.99	2.29039e+007
2272.51	2.29228e+007
2272.03	2.29071e+007
2271.54	2.28745e+007
2271.06	2.28786e+007
2270.58	2.29434e+007
2270.1	2.29877e+007
2269.61	2.29336e+007
2269.13	2.28641e+007
2268.65	2.29085e+007
2268.17	2.30073e+007
2267.68	2.30003e+007
2267.2	2.29163e+007
2266.72	2.29271e+007
2266.24	2.3029e+007
2265.76	2.30477e+007
2265.27	2.29688e+007
2264.79	2.2966e+007
2264.31	2.30684e+007
2263.83	2.31039e+007
2263.34	2.30287e+007
2262.86	2.3011e+007
2262.38	2.3111e+007
2261.9	2.31734e+007
2261.42	2.31272e+007
2260.93	2.31069e+007
2260.45	2.31777e+007
2259.97	2.32188e+007
2259.49	2.31775e+007
2259	2.31729e+007
2258.52	2.32481e+007
2258.04	2.32818e+007
2257.56	2.32374e+007
2257.07	2.32431e+007
2256.59	2.33345e+007
2256.11	2.33755e+007
2255.63	2.33223e+007
2255.15	2.33069e+007
2254.66	2.33739e+007
2254.18	2.33977e+007
2253.7	2.33455e+007
2253.22	2.3355e+007
2252.73	2.346e+007
2252.25	2.35074e+007
2251.77	2.34443e+007
2251.29	2.34215e+007
2250.8	2.35105e+007
2250.32	2.35753e+007
2249.84	2.35354e+007
2249.36	2.35032e+007
2248.88	2.3551e+007
2248.39	2.35825e+007
2247.91	2.35463e+007
2247.43	2.35418e+007
2246.95	2.36083e+007
2246.46	2.36367e+007
2245.98	2.35899e+007
2245.5	2.35849e+007
2245.02	2.36621e+007
2244.54	2.36974e+007
2244.05	2.36401e+007
2243.57	2.36137e+007
2243.09	2.36811e+007
2242.61	2.37297e+007
2242.12	2.36902e+007
2241.64	2.36604e+007
2241.16	2.3707e+007
2240.68	2.37467e+007
2240.19	2.37228e+007
2239.71	2.37114e+007
2239.23	2.37564e+007
2238.75	2.37811e+007
2238.27	2.3749e+007
2237.78	2.37405e+007
2237.3	2.37909e+007
2236.82	2.38203e+007
2236.34	2.37951e+007
2235.85	2.37917e+007
2235.37	2.38374e+007
2234.89	2.38521e+007
2234.41	2.3809e+007
2233.93	2.37923e+007
2233.44	2.38402e+007
2232.96	2.38803e+007
2232.48	2.38726e+007
2232	2.38708e+007
2231.51	2.39017e+007
2231.03	2.39224e+007
2230.55	2.39241e+007
2230.07	2.39453e+007
2229.58	2.39688e+007
2229.1	2.39418e+007
2228.62	2.38972e+007
2228.14	2.39137e+007
2227.66	2.39681e+007
2227.17	2.39724e+007
2226.69	2.39402e+007
2226.21	2.39576e+007
2225.73	2.4014e+007
2225.24	2.40231e+007
2224.76	2.39917e+007
2224.28	2.40012e+007
2223.8	2.40434e+007
2223.31	2.40443e+007
2222.83	2.4021e+007
2222.35	2.40476e+007
2221.87	2.40931e+007
2221.39	2.40694e+007
2220.9	2.40101e+007
2220.42	2.40234e+007
2219.94	2.40944e+007
2219.46	2.41137e+007
2218.97	2.40778e+007
2218.49	2.40784e+007
2218.01	2.41198e+007
2217.53	2.41244e+007
2217.05	2.40993e+007
2216.56	2.41194e+007
2216.08	2.41661e+007
2215.6	2.4156e+007
2215.12	2.41083e+007
2214.63	2.41127e+007
2214.15	2.41576e+007
2213.67	2.41582e+007
2213.19	2.41286e+007
2212.7	2.41521e+007
2212.22	2.42094e+007
2211.74	2.42102e+007
2211.26	2.41675e+007
2210.78	2.41724e+007
2210.29	2.4219e+007
2209.81	2.42236e+007
2209.33	2.41938e+007
2208.85	2.42088e+007
2208.36	2.42562e+007
2207.88	2.42535e+007
2207.4	2.4212e+007
2206.92	2.42171e+007
2206.44	2.42648e+007
2205.95	2.42752e+007
2205.47	2.42486e+007
2204.99	2.42557e+007
2204.51	2.42921e+007
2204.02	2.42921e+007
2203.54	2.42669e+007
2203.06	2.42854e+007
2202.58	2.43343e+007
2202.09	2.43393e+007
2201.61	2.43044e+007
2201.13	2.43006e+007
2200.65	2.43339e+007
2200.17	2.43487e+007
2199.68	2.43425e+007
2199.2	2.43574e+007
2198.72	2.43834e+007
2198.24	2.43801e+007
2197.75	2.43646e+007
2197.27	2.43766e+007
2196.79	2.4393e+007
2196.31	2.43765e+007
2195.82	2.43618e+007
2195.34	2.43941e+007
2194.86	2.44339e+007
2194.38	2.44242e+007
2193.9	2.43959e+007
2193.41	2.44093e+007
2192.93	2.44454e+007
2192.45	2.44534e+007
2191.97	2.44468e+007
2191.48	2.446e+007
2191	2.44713e+007
2190.52	2.44562e+007
2190.04	2.44538e+007
2189.56	2.44929e+007
2189.07	2.4524e+007
2188.59	2.45066e+007
2188.11	2.44856e+007
2187.63	2.45015e+007
2187.14	2.45116e+007
2186.66	2.4484e+007
2186.18	2.44749e+007
2185.7	2.45246e+007
2185.21	2.45705e+007
2184.73	2.45552e+007
2184.25	2.45268e+007
2183.77	2.45409e+007
2183.29	2.45601e+007
2182.8	2.45438e+007
2182.32	2.45399e+007
2181.84	2.45894e+007
2181.36	2.46368e+007
2180.87	2.46294e+007
2180.39	2.46123e+007
2179.91	2.46328e+007
2179.43	2.46476e+007
2178.95	2.46172e+007
2178.46	2.45965e+007
2177.98	2.46334e+007
2177.5	2.46728e+007
2177.02	2.46565e+007
2176.53	2.46281e+007
2176.05	2.46444e+007
2175.57	2.46727e+007
2175.09	2.46655e+007
2174.6	2.46539e+007
2174.12	2.46779e+007
2173.64	2.47051e+007
2173.16	2.46987e+007
2172.68	2.46886e+007
2172.19	2.47049e+007
2171.71	2.47195e+007
2171.23	2.47145e+007
2170.75	2.47218e+007
2170.26	2.47462e+007
2169.78	2.47411e+007
2169.3	2.47066e+007
2168.82	2.47084e+007
2168.33	2.47564e+007
2167.85	2.47775e+007
2167.37	2.47515e+007
2166.89	2.47509e+007
2166.41	2.47999e+007
2165.92	2.48231e+007
2165.44	2.4788e+007
2164.96	2.47663e+007
2164.48	2.47947e+007
2163.99	2.48105e+007
2163.51	2.47863e+007
2163.03	2.47896e+007
2162.55	2.48436e+007
2162.07	2.4867e+007
2161.58	2.48249e+007
2161.1	2.48007e+007
2160.62	2.48416e+007
2160.14	2.4871e+007
2159.65	2.48365e+007
2159.17	2.48116e+007
2158.69	2.48588e+007
2158.21	2.49161e+007
2157.72	2.49134e+007
2157.24	2.4887e+007
2156.76	2.48927e+007
2156.28	2.4908e+007
2155.8	2.49036e+007
2155.31	2.49094e+007
2154.83	2.4938e+007
2154.35	2.49406e+007
2153.87	2.49061e+007
2153.38	2.49007e+007
2152.9	2.49476e+007
2152.42	2.49756e+007
2151.94	2.49487e+007
2151.46	2.49332e+007
2150.97	2.49719e+007
2150.49	2.50039e+007
2150.01	2.49804e+007
2149.53	2.49531e+007
2149.04	2.49728e+007
2148.56	2.50012e+007
2148.08	2.49954e+007
2147.6	2.49875e+007
2147.11	2.50112e+007
2146.63	2.50336e+007
2146.15	2.50255e+007
2145.67	2.50183e+007
2145.19	2.50364e+007
2144.7	2.50492e+007
2144.22	2.50383e+007
2143.74	2.50375e+007
2143.26	2.50634e+007
2142.77	2.5082e+007
2142.29	2.50773e+007
2141.81	2.50794e+007
2141.33	2.50954e+007
2140.84	2.5092e+007
2140.36	2.50692e+007
2139.88	2.50704e+007
2139.4	2.51003e+007
2138.92	2.51156e+007
2138.43	2.51078e+007
2137.95	2.51127e+007
2137.47	2.51274e+007
2136.99	2.51114e+007
2136.5	2.50774e+007
2136.02	2.50827e+007
2135.54	2.51256e+007
2135.06	2.51458e+007
2134.58	2.51354e+007
2134.09	2.51455e+007
2133.61	2.51769e+007
2133.13	2.51721e+007
2132.65	2.51315e+007
2132.16	2.51259e+007
2131.68	2.51719e+007
2131.2	2.52006e+007
2130.72	2.51764e+007
2130.23	2.51509e+007
2129.75	2.51678e+007
2129.27	2.52019e+007
2128.79	2.52211e+007
2128.31	2.52306e+007
2127.82	2.52341e+007
2127.34	2.52222e+007
2126.86	2.52119e+007
2126.38	2.52324e+007
2125.89	2.52669e+007
2125.41	2.5273e+007
2124.93	2.52545e+007
2124.45	2.52491e+007
2123.97	2.52569e+007
2123.48	2.52521e+007
2123	2.52466e+007
2122.52	2.5269e+007
2122.04	2.52996e+007
2121.55	2.53003e+007
2121.07	2.52872e+007
2120.59	2.52986e+007
2120.11	2.53177e+007
2119.62	2.53038e+007
2119.14	2.52742e+007
2118.66	2.52757e+007
2118.18	2.53028e+007
2117.7	2.53194e+007
2117.21	2.53298e+007
2116.73	2.53546e+007
2116.25	2.53694e+007
2115.77	2.53474e+007
2115.28	2.5322e+007
2114.8	2.53331e+007
2114.32	2.53542e+007
2113.84	2.53494e+007
2113.35	2.53502e+007
2112.87	2.53916e+007
2112.39	2.54287e+007
2111.91	2.54078e+007
2111.43	2.53679e+007
2110.94	2.5375e+007
2110.46	2.54095e+007
2109.98	2.54138e+007
2109.5	2.54018e+007
2109.01	2.54184e+007
2108.53	2.54403e+007
2108.05	2.54216e+007
2107.57	2.53922e+007
2107.09	2.54079e+007
2106.6	2.54446e+007
2106.12	2.54456e+007
2105.64	2.54306e+007
2105.16	2.54548e+007
2104.67	2.54975e+007
2104.19	2.5497e+007
2103.71	2.54627e+007
2103.23	2.54544e+007
2102.74	2.54779e+007
2102.26	2.54938e+007
2101.78	2.54998e+007
2101.3	2.55186e+007
2100.82	2.55334e+007
2100.33	2.55188e+007
2099.85	2.55019e+007
2099.37	2.55181e+007
2098.89	2.55422e+007
2098.4	2.55364e+007
2097.92	2.55242e+007
2097.44	2.55422e+007
2096.96	2.55668e+007
2096.48	2.55594e+007
2095.99	2.554e+007
2095.51	2.55434e+007
2095.03	2.5553e+007
2094.55	2.55445e+007
2094.06	2.55426e+007
2093.58	2.55681e+007
2093.1	2.55866e+007
2092.62	2.55751e+007
2092.13	2.5574e+007
2091.65	2.56063e+007
2091.17	2.56183e+007
2090.69	2.55734e+007
2090.21	2.55305e+007
2089.72	2.55497e+007
2089.24	2.55925e+007
2088.76	2.5599e+007
2088.28	2.55909e+007
2087.79	2.56118e+007
2087.31	2.56359e+007
2086.83	2.56255e+007
2086.35	2.56138e+007
2085.86	2.56404e+007
2085.38	2.56685e+007
2084.9	2.5655e+007
2084.42	2.56393e+007
2083.94	2.56695e+007
2083.45	2.5706e+007
2082.97	2.5692e+007
2082.49	2.56613e+007
2082.01	2.56781e+007
2081.52	2.57204e+007
2081.04	2.57225e+007
2080.56	2.5693e+007
2080.08	2.56909e+007
2079.6	2.57185e+007
2079.11	2.57276e+007
2078.63	2.57098e+007
2078.15	2.57005e+007
2077.67	2.57082e+007
2077.18	2.57109e+007
2076.7	2.57071e+007
2076.22	2.5716e+007
2075.74	2.57387e+007
2075.25	2.57593e+007
2074.77	2.57701e+007
2074.29	2.57676e+007
2073.81	2.57513e+007
2073.33	2.57415e+007
2072.84	2.57616e+007
2072.36	2.57933e+007
2071.88	2.57977e+007
2071.4	2.57848e+007
2070.91	2.57978e+007
2070.43	2.58283e+007
2069.95	2.5825e+007
2069.47	2.57935e+007
2068.99	2.57955e+007
2068.5	2.58343e+007
2068.02	2.58413e+007
2067.54	2.58019e+007
2067.06	2.5788e+007
2066.57	2.58233e+007
2066.09	2.58256e+007
2065.61	2.57419e+007
2065.13	2.56459e+007
2064.64	2.5633e+007
2064.16	2.56947e+007
2063.68	2.57614e+007
2063.2	2.58035e+007
2062.72	2.5831e+007
2062.23	2.58497e+007
2061.75	2.58671e+007
2061.27	2.5894e+007
2060.79	2.59109e+007
2060.3	2.58857e+007
2059.82	2.58429e+007
2059.34	2.58461e+007
2058.86	2.58968e+007
2058.37	2.59283e+007
2057.89	2.59157e+007
2057.41	2.59069e+007
2056.93	2.59251e+007
2056.45	2.59324e+007
2055.96	2.59174e+007
2055.48	2.59258e+007
2055	2.59677e+007
2054.52	2.59856e+007
2054.03	2.5955e+007
2053.55	2.5929e+007
2053.07	2.59453e+007
2052.59	2.59682e+007
2052.11	2.59648e+007
2051.62	2.59582e+007
2051.14	2.59657e+007
2050.66	2.5962e+007
2050.18	2.59435e+007
2049.69	2.59518e+007
2049.21	2.59956e+007
2048.73	2.60222e+007
2048.25	2.60056e+007
2047.76	2.59902e+007
2047.28	2.6009e+007
2046.8	2.60284e+007
2046.32	2.60172e+007
2045.84	2.60025e+007
2045.35	2.60143e+007
2044.87	2.6033e+007
2044.39	2.60346e+007
2043.91	2.6035e+007
2043.42	2.605e+007
2042.94	2.6055e+007
2042.46	2.60209e+007
2041.98	2.59609e+007
2041.5	2.59149e+007
2041.01	2.59111e+007
2040.53	2.5952e+007
2040.05	2.60127e+007
2039.57	2.60547e+007
2039.08	2.60657e+007
2038.6	2.60737e+007
2038.12	2.60977e+007
2037.64	2.61141e+007
2037.15	2.61069e+007
2036.67	2.61085e+007
2036.19	2.6142e+007
2035.71	2.61688e+007
2035.23	2.61525e+007
2034.74	2.61284e+007
2034.26	2.61423e+007
2033.78	2.61653e+007
2033.3	2.61496e+007
2032.81	2.61231e+007
2032.33	2.61415e+007
2031.85	2.6186e+007
2031.37	2.61992e+007
2030.88	2.61892e+007
2030.4	2.62051e+007
2029.92	2.62369e+007
2029.44	2.62349e+007
2028.96	2.62068e+007
2028.47	2.62034e+007
2027.99	2.6226e+007
2027.51	2.62334e+007
2027.03	2.62246e+007
2026.54	2.62302e+007
2026.06	2.62446e+007
2025.58	2.62439e+007
2025.1	2.62446e+007
2024.62	2.62682e+007
2024.13	2.62806e+007
2023.65	2.62479e+007
2023.17	2.62128e+007
2022.69	2.62295e+007
2022.2	2.62675e+007
2021.72	2.62708e+007
2021.24	2.62632e+007
2020.76	2.62916e+007
2020.27	2.63163e+007
2019.79	2.62753e+007
2019.31	2.62151e+007
2018.83	2.62243e+007
2018.35	2.62648e+007
2017.86	2.6211e+007
2017.38	2.60548e+007
2016.9	2.59374e+007
2016.42	2.59586e+007
2015.93	2.60711e+007
2015.45	2.61854e+007
2014.97	2.6275e+007
2014.49	2.6345e+007
2014.01	2.63845e+007
2013.52	2.63909e+007
2013.04	2.63841e+007
2012.56	2.63748e+007
2012.08	2.63624e+007
2011.59	2.63625e+007
2011.11	2.63888e+007
2010.63	2.64177e+007
2010.15	2.64218e+007
2009.66	2.6417e+007
2009.18	2.64286e+007
2008.7	2.64365e+007
2008.22	2.64131e+007
2007.74	2.6385e+007
2007.25	2.63956e+007
2006.77	2.6433e+007
2006.29	2.64572e+007
2005.81	2.64684e+007
2005.32	2.64861e+007
2004.84	2.64964e+007
2004.36	2.64814e+007
2003.88	2.64669e+007
2003.39	2.64795e+007
2002.91	2.6495e+007
2002.43	2.64886e+007
2001.95	2.64913e+007
2001.47	2.65277e+007
2000.98	2.65545e+007
2000.5	2.65317e+007
2000.02	2.65026e+007
1999.54	2.65194e+007
1999.05	2.65463e+007
1998.57	2.65265e+007
1998.09	2.64943e+007
1997.61	2.65158e+007
1997.13	2.65669e+007
1996.64	2.65796e+007
1996.16	2.65697e+007
1995.68	2.65996e+007
1995.2	2.66461e+007
1994.71	2.66352e+007
1994.23	2.65878e+007
1993.75	2.65839e+007
1993.27	2.65766e+007
1992.78	2.64022e+007
1992.3	2.60406e+007
1991.82	2.57339e+007
1991.34	2.57408e+007
1990.86	2.60446e+007
1990.37	2.63926e+007
1989.89	2.65784e+007
1989.41	2.65936e+007
1988.93	2.65348e+007
1988.44	2.64716e+007
1987.96	2.64363e+007
1987.48	2.6462e+007
1987	2.65583e+007
1986.52	2.66705e+007
1986.03	2.67231e+007
1985.55	2.67107e+007
1985.07	2.67002e+007
1984.59	2.6732e+007
1984.1	2.67682e+007
1983.62	2.67634e+007
1983.14	2.67375e+007
1982.66	2.67351e+007
1982.17	2.67527e+007
1981.69	2.67574e+007
1981.21	2.67504e+007
1980.73	2.67557e+007
1980.25	2.67691e+007
1979.76	2.67718e+007
1979.28	2.67744e+007
1978.8	2.6794e+007
1978.32	2.6808e+007
1977.83	2.67898e+007
1977.35	2.67656e+007
1976.87	2.67764e+007
1976.39	2.68067e+007
1975.9	2.68166e+007
1975.42	2.68147e+007
1974.94	2.68328e+007
1974.46	2.68553e+007
1973.98	2.68507e+007
1973.49	2.68421e+007
1973.01	2.68663e+007
1972.53	2.6895e+007
1972.05	2.68835e+007
1971.56	2.6862e+007
1971.08	2.68816e+007
1970.6	2.69099e+007
1970.12	2.68926e+007
1969.64	2.68764e+007
1969.15	2.69285e+007
1968.67	2.69625e+007
1968.19	2.68141e+007
1967.71	2.65062e+007
1967.22	2.62736e+007
1966.74	2.62758e+007
1966.26	2.64287e+007
1965.78	2.65789e+007
1965.29	2.66981e+007
1964.81	2.68213e+007
1964.33	2.69194e+007
1963.85	2.69472e+007
1963.37	2.69396e+007
1962.88	2.69575e+007
1962.4	2.69876e+007
1961.92	2.69775e+007
1961.44	2.69347e+007
1960.95	2.6915e+007
1960.47	2.69377e+007
1959.99	2.69701e+007
1959.51	2.69843e+007
1959.03	2.69867e+007
1958.54	2.69979e+007
1958.06	2.70259e+007
1957.58	2.7056e+007
1957.1	2.7061e+007
1956.61	2.70335e+007
1956.13	2.69989e+007
1955.65	2.69791e+007
1955.17	2.69652e+007
1954.68	2.69516e+007
1954.2	2.69666e+007
1953.72	2.70254e+007
1953.24	2.70839e+007
1952.76	2.70938e+007
1952.27	2.70772e+007
1951.79	2.7089e+007
1951.31	2.71281e+007
1950.83	2.71474e+007
1950.34	2.71349e+007
1949.86	2.71218e+007
1949.38	2.71233e+007
1948.9	2.71271e+007
1948.41	2.71299e+007
1947.93	2.71333e+007
1947.45	2.71194e+007
1946.97	2.70722e+007
1946.49	2.70058e+007
1946	2.6941e+007
1945.52	2.68952e+007
1945.04	2.69147e+007
1944.56	2.70333e+007
1944.07	2.71398e+007
1943.59	2.69927e+007
1943.11	2.64975e+007
1942.63	2.59188e+007
1942.15	2.5675e+007
1941.66	2.59214e+007
1941.18	2.64336e+007
1940.7	2.68873e+007
1940.22	2.71371e+007
1939.73	2.72218e+007
1939.25	2.72282e+007
1938.77	2.72208e+007
1938.29	2.72342e+007
1937.8	2.72651e+007
1937.32	2.72843e+007
1936.84	2.72765e+007
1936.36	2.72585e+007
1935.88	2.72548e+007
1935.39	2.72718e+007
1934.91	2.72952e+007
1934.43	2.73014e+007
1933.95	2.72803e+007
1933.46	2.72522e+007
1932.98	2.72453e+007
1932.5	2.72583e+007
1932.02	2.72703e+007
1931.54	2.72797e+007
1931.05	2.72982e+007
1930.57	2.73152e+007
1930.09	2.73151e+007
1929.61	2.73158e+007
1929.12	2.73391e+007
1928.64	2.73596e+007
1928.16	2.73475e+007
1927.68	2.73354e+007
1927.19	2.73673e+007
1926.71	2.74085e+007
1926.23	2.74e+007
1925.75	2.73725e+007
1925.27	2.73976e+007
1924.78	2.74365e+007
1924.3	2.73562e+007
1923.82	2.70974e+007
1923.34	2.67384e+007
1922.85	2.64229e+007
1922.37	2.63077e+007
1921.89	2.64997e+007
1921.41	2.69056e+007
1920.92	2.72383e+007
1920.44	2.73414e+007
1919.96	2.73767e+007
1919.48	2.74526e+007
1919	2.72446e+007
1918.51	2.64087e+007
1918.03	2.5321e+007
1917.55	2.48928e+007
1917.07	2.54982e+007
1916.58	2.65186e+007
1916.1	2.71634e+007
1915.62	2.73352e+007
1915.14	2.74037e+007
1914.66	2.75129e+007
1914.17	2.75346e+007
1913.69	2.74707e+007
1913.21	2.74684e+007
1912.73	2.7531e+007
1912.24	2.75469e+007
1911.76	2.75273e+007
1911.28	2.7533e+007
1910.8	2.74625e+007
1910.31	2.72077e+007
1909.83	2.69354e+007
1909.35	2.69138e+007
1908.87	2.71065e+007
1908.39	2.72322e+007
1907.9	2.72001e+007
1907.42	2.71952e+007
1906.94	2.73261e+007
1906.46	2.74695e+007
1905.97	2.7515e+007
1905.49	2.75192e+007
1905.01	2.75453e+007
1904.53	2.75545e+007
1904.05	2.75313e+007
1903.56	2.75444e+007
1903.08	2.76118e+007
1902.6	2.76495e+007
1902.12	2.76203e+007
1901.63	2.75973e+007
1901.15	2.76266e+007
1900.67	2.76499e+007
1900.19	2.76248e+007
1899.7	2.76042e+007
1899.22	2.76323e+007
1898.74	2.76638e+007
1898.26	2.76557e+007
1897.78	2.76508e+007
1897.29	2.76915e+007
1896.81	2.77154e+007
1896.33	2.76199e+007
1895.85	2.74015e+007
1895.36	2.71725e+007
1894.88	2.70598e+007
1894.4	2.71224e+007
1893.92	2.7328e+007
1893.43	2.75585e+007
1892.95	2.76778e+007
1892.47	2.76674e+007
1891.99	2.76713e+007
1891.51	2.77959e+007
1891.02	2.78652e+007
1890.54	2.75373e+007
1890.06	2.67719e+007
1889.58	2.60475e+007
1889.09	2.59205e+007
1888.61	2.64157e+007
1888.13	2.70513e+007
1887.65	2.74404e+007
1887.17	2.76208e+007
1886.68	2.77583e+007
1886.2	2.78282e+007
1885.72	2.77572e+007
1885.24	2.76463e+007
1884.75	2.76305e+007
1884.27	2.76692e+007
1883.79	2.76713e+007
1883.31	2.76889e+007
1882.82	2.77903e+007
1882.34	2.78801e+007
1881.86	2.78524e+007
1881.38	2.77962e+007
1880.9	2.78352e+007
1880.41	2.7895e+007
1879.93	2.78504e+007
1879.45	2.77742e+007
1878.97	2.78e+007
1878.48	2.78664e+007
1878	2.78481e+007
1877.52	2.78119e+007
1877.04	2.78758e+007
1876.55	2.79465e+007
1876.07	2.78867e+007
1875.59	2.78071e+007
1875.11	2.7879e+007
1874.63	2.79949e+007
1874.14	2.79581e+007
1873.66	2.78683e+007
1873.18	2.79335e+007
1872.7	2.80387e+007
1872.21	2.79467e+007
1871.73	2.78011e+007
1871.25	2.78909e+007
1870.77	2.79646e+007
1870.29	2.73958e+007
1869.8	2.61474e+007
1869.32	2.5009e+007
1868.84	2.46646e+007
1868.36	2.49935e+007
1867.87	2.55054e+007
1867.39	2.59951e+007
1866.91	2.64779e+007
1866.43	2.68805e+007
1865.94	2.71503e+007
1865.46	2.74102e+007
1864.98	2.77254e+007
1864.5	2.79389e+007
1864.02	2.79519e+007
1863.53	2.79272e+007
1863.05	2.80087e+007
1862.57	2.80817e+007
1862.09	2.80169e+007
1861.6	2.79206e+007
1861.12	2.79323e+007
1860.64	2.79865e+007
1860.16	2.7975e+007
1859.68	2.795e+007
1859.19	2.79814e+007
1858.71	2.80016e+007
1858.23	2.79591e+007
1857.75	2.79477e+007
1857.26	2.80286e+007
1856.78	2.81035e+007
1856.3	2.80979e+007
1855.82	2.80885e+007
1855.33	2.81293e+007
1854.85	2.81457e+007
1854.37	2.81092e+007
1853.89	2.81128e+007
1853.41	2.8174e+007
1852.92	2.81806e+007
1852.44	2.81186e+007
1851.96	2.81189e+007
1851.48	2.81966e+007
1850.99	2.82079e+007
1850.51	2.81459e+007
1850.03	2.81759e+007
1849.55	2.82789e+007
1849.06	2.81976e+007
1848.58	2.78699e+007
1848.1	2.75675e+007
1847.62	2.74631e+007
1847.14	2.74505e+007
1846.65	2.75376e+007
1846.17	2.78853e+007
1845.69	2.81428e+007
1845.21	2.73545e+007
1844.72	2.51826e+007
1844.24	2.28716e+007
1843.76	2.22235e+007
1843.28	2.36364e+007
1842.8	2.57678e+007
1842.31	2.71722e+007
1841.83	2.7653e+007
1841.35	2.78405e+007
1840.87	2.80831e+007
1840.38	2.82424e+007
1839.9	2.82427e+007
1839.42	2.82594e+007
1838.94	2.83654e+007
1838.45	2.83745e+007
1837.97	2.81508e+007
1837.49	2.78485e+007
1837.01	2.77199e+007
1836.53	2.78191e+007
1836.04	2.80139e+007
1835.56	2.81893e+007
1835.08	2.83128e+007
1834.6	2.8358e+007
1834.11	2.83052e+007
1833.63	2.82105e+007
1833.15	2.81709e+007
1832.67	2.82261e+007
1832.19	2.83484e+007
1831.7	2.84336e+007
1831.22	2.81912e+007
1830.74	2.7246e+007
1830.26	2.56821e+007
1829.77	2.43778e+007
1829.29	2.43182e+007
1828.81	2.54773e+007
1828.33	2.68274e+007
1827.84	2.76035e+007
1827.36	2.80211e+007
1826.88	2.84373e+007
1826.4	2.84412e+007
1825.92	2.74753e+007
1825.43	2.60104e+007
1824.95	2.52721e+007
1824.47	2.57938e+007
1823.99	2.68986e+007
1823.5	2.77036e+007
1823.02	2.80375e+007
1822.54	2.8187e+007
1822.06	2.82946e+007
1821.57	2.83407e+007
1821.09	2.8373e+007
1820.61	2.84393e+007
1820.13	2.84863e+007
1819.65	2.84956e+007
1819.16	2.85303e+007
1818.68	2.85475e+007
1818.2	2.84032e+007
1817.72	2.81424e+007
1817.23	2.80267e+007
1816.75	2.81621e+007
1816.27	2.83454e+007
1815.79	2.84019e+007
1815.31	2.84248e+007
1814.82	2.85356e+007
1814.34	2.8642e+007
1813.86	2.8609e+007
1813.38	2.84913e+007
1812.89	2.84239e+007
1812.41	2.83929e+007
1811.93	2.82449e+007
1811.45	2.78684e+007
1810.96	2.73354e+007
1810.48	2.69385e+007
1810	2.7023e+007
1809.52	2.76084e+007
1809.04	2.82358e+007
1808.55	2.84183e+007
1808.07	2.82071e+007
1807.59	2.806e+007
1807.11	2.81966e+007
1806.62	2.8404e+007
1806.14	2.84813e+007
1805.66	2.85051e+007
1805.18	2.85673e+007
1804.7	2.85971e+007
1804.21	2.85733e+007
1803.73	2.8578e+007
1803.25	2.84977e+007
1802.77	2.80423e+007
1802.28	2.72907e+007
1801.8	2.68447e+007
1801.32	2.70719e+007
1800.84	2.74733e+007
1800.35	2.72719e+007
1799.87	2.65128e+007
1799.39	2.6081e+007
1798.91	2.65645e+007
1798.43	2.75461e+007
1797.94	2.82302e+007
1797.46	2.83913e+007
1796.98	2.83427e+007
1796.5	2.82284e+007
1796.01	2.79059e+007
1795.53	2.75405e+007
1795.05	2.76954e+007
1794.57	2.84404e+007
1794.08	2.88011e+007
1793.6	2.77222e+007
1793.12	2.54876e+007
1792.64	2.35946e+007
1792.16	2.31378e+007
1791.67	2.38374e+007
1791.19	2.48044e+007
1790.71	2.56649e+007
1790.23	2.65497e+007
1789.74	2.74473e+007
1789.26	2.81231e+007
1788.78	2.84945e+007
1788.3	2.86668e+007
1787.82	2.87155e+007
1787.33	2.87207e+007
1786.85	2.88123e+007
1786.37	2.88832e+007
1785.89	2.85258e+007
1785.4	2.76343e+007
1784.92	2.68138e+007
1784.44	2.67411e+007
1783.96	2.73234e+007
1783.47	2.79532e+007
1782.99	2.83743e+007
1782.51	2.87241e+007
1782.03	2.88797e+007
1781.55	2.84637e+007
1781.06	2.75768e+007
1780.58	2.69108e+007
1780.1	2.69361e+007
1779.62	2.74252e+007
1779.13	2.79266e+007
1778.65	2.82867e+007
1778.17	2.85444e+007
1777.69	2.87036e+007
1777.21	2.87806e+007
1776.72	2.8759e+007
1776.24	2.84456e+007
1775.76	2.77783e+007
1775.28	2.72892e+007
1774.79	2.76355e+007
1774.31	2.84333e+007
1773.83	2.82277e+007
1773.35	2.61709e+007
1772.86	2.32999e+007
1772.38	2.1522e+007
1771.9	2.15835e+007
1771.42	2.26896e+007
1770.94	2.39721e+007
1770.45	2.54495e+007
1769.97	2.72161e+007
1769.49	2.84449e+007
1769.01	2.80497e+007
1768.52	2.62471e+007
1768.04	2.47151e+007
1767.56	2.48691e+007
1767.08	2.64011e+007
1766.59	2.79063e+007
1766.11	2.85916e+007
1765.63	2.87762e+007
1765.15	2.89109e+007
1764.67	2.89438e+007
1764.18	2.88458e+007
1763.7	2.89249e+007
1763.22	2.9065e+007
1762.74	2.83499e+007
1762.25	2.63186e+007
1761.77	2.42047e+007
1761.29	2.38865e+007
1760.81	2.55957e+007
1760.33	2.76173e+007
1759.84	2.84688e+007
1759.36	2.84555e+007
1758.88	2.86151e+007
1758.4	2.89799e+007
1757.91	2.87125e+007
1757.43	2.75324e+007
1756.95	2.61873e+007
1756.47	2.55981e+007
1755.98	2.60873e+007
1755.5	2.7335e+007
1755.02	2.85926e+007
1754.54	2.90932e+007
1754.06	2.87958e+007
1753.57	2.85719e+007
1753.09	2.90082e+007
1752.61	2.91877e+007
1752.13	2.76082e+007
1751.64	2.45091e+007
1751.16	2.22518e+007
1750.68	2.26948e+007
1750.2	2.49139e+007
1749.72	2.64194e+007
1749.23	2.61758e+007
1748.75	2.5374e+007
1748.27	2.5369e+007
1747.79	2.60378e+007
1747.3	2.65321e+007
1746.82	2.66897e+007
1746.34	2.698e+007
1745.86	2.75573e+007
1745.37	2.8075e+007
1744.89	2.82408e+007
1744.41	2.80353e+007
1743.93	2.75095e+007
1743.45	2.68196e+007
1742.96	2.64051e+007
1742.48	2.67227e+007
1742	2.77034e+007
1741.52	2.86319e+007
1741.03	2.85954e+007
1740.55	2.7142e+007
1740.07	2.48329e+007
1739.59	2.31948e+007
1739.1	2.35766e+007
1738.62	2.5683e+007
1738.14	2.76911e+007
1737.66	2.82793e+007
1737.18	2.80683e+007
1736.69	2.83986e+007
1736.21	2.91082e+007
1735.73	2.85223e+007
1735.25	2.56767e+007
1734.76	2.16757e+007
1734.28	1.85716e+007
1733.8	1.7558e+007
1733.32	1.85518e+007
1732.84	2.08785e+007
1732.35	2.37555e+007
1731.87	2.63533e+007
1731.39	2.794e+007
1730.91	2.81872e+007
1730.42	2.73881e+007
1729.94	2.6415e+007
1729.46	2.62269e+007
1728.98	2.70651e+007
1728.49	2.81998e+007
1728.01	2.87772e+007
1727.53	2.8776e+007
1727.05	2.87538e+007
1726.57	2.88892e+007
1726.08	2.88929e+007
1725.6	2.8748e+007
1725.12	2.8783e+007
1724.64	2.89374e+007
1724.15	2.87176e+007
1723.67	2.81039e+007
1723.19	2.77715e+007
1722.71	2.80793e+007
1722.23	2.85253e+007
1721.74	2.86221e+007
1721.26	2.86443e+007
1720.78	2.89528e+007
1720.3	2.91536e+007
1719.81	2.85809e+007
1719.33	2.71747e+007
1718.85	2.52381e+007
1718.37	2.2817e+007
1717.88	2.02021e+007
1717.4	1.86967e+007
1716.92	1.96661e+007
1716.44	2.25762e+007
1715.96	2.4993e+007
1715.47	2.51575e+007
1714.99	2.39295e+007
1714.51	2.35019e+007
1714.03	2.46834e+007
1713.54	2.63452e+007
1713.06	2.73473e+007
1712.58	2.78896e+007
1712.1	2.85815e+007
1711.61	2.91545e+007
1711.13	2.89682e+007
1710.65	2.82686e+007
1710.17	2.79411e+007
1709.69	2.8194e+007
1709.2	2.84615e+007
1708.72	2.85663e+007
1708.24	2.88753e+007
1707.76	2.91207e+007
1707.27	2.83225e+007
1706.79	2.64712e+007
1706.31	2.51029e+007
1705.83	2.52823e+007
1705.35	2.60322e+007
1704.86	2.59082e+007
1704.38	2.5249e+007
1703.9	2.5455e+007
1703.42	2.66922e+007
1702.93	2.78879e+007
1702.45	2.85146e+007
1701.97	2.85433e+007
1701.49	2.68928e+007
1701	2.22737e+007
1700.52	1.61758e+007
1700.04	1.28185e+007
1699.56	1.47275e+007
1699.08	1.98023e+007
1698.59	2.4123e+007
1698.11	2.63088e+007
1697.63	2.73789e+007
1697.15	2.74567e+007
1696.66	2.51996e+007
1696.18	2.07532e+007
1695.7	1.71182e+007
1695.22	1.73046e+007
1694.74	2.1043e+007
1694.25	2.53415e+007
1693.77	2.78096e+007
1693.29	2.8498e+007
1692.81	2.86987e+007
1692.32	2.90295e+007
1691.84	2.91866e+007
1691.36	2.89274e+007
1690.88	2.84847e+007
1690.39	2.80751e+007
1689.91	2.76617e+007
1689.43	2.73381e+007
1688.95	2.73578e+007
1688.47	2.75769e+007
1687.98	2.75217e+007
1687.5	2.73355e+007
1687.02	2.78201e+007
1686.54	2.88494e+007
1686.05	2.8585e+007
1685.57	2.54727e+007
1685.09	2.06253e+007
1684.61	1.69689e+007
1684.12	1.61296e+007
1683.64	1.73482e+007
1683.16	1.93751e+007
1682.68	2.19334e+007
1682.2	2.48595e+007
1681.71	2.71604e+007
1681.23	2.78914e+007
1680.75	2.73282e+007
1680.27	2.65886e+007
1679.78	2.64873e+007
1679.3	2.70913e+007
1678.82	2.79218e+007
1678.34	2.8369e+007
1677.86	2.83489e+007
1677.37	2.84701e+007
1676.89	2.88822e+007
1676.41	2.82997e+007
1675.93	2.54622e+007
1675.44	2.15726e+007
1674.96	1.97193e+007
1674.48	2.13612e+007
1674	2.47328e+007
1673.51	2.7277e+007
1673.03	2.82067e+007
1672.55	2.79717e+007
1672.07	2.68936e+007
1671.59	2.55702e+007
1671.1	2.51668e+007
1670.62	2.57613e+007
1670.14	2.55604e+007
1669.66	2.34009e+007
1669.17	2.10279e+007
1668.69	2.10591e+007
1668.21	2.34311e+007
1667.73	2.57952e+007
1667.25	2.69097e+007
1666.76	2.75476e+007
1666.28	2.82472e+007
1665.8	2.84082e+007
1665.32	2.79677e+007
1664.83	2.79171e+007
1664.35	2.83946e+007
1663.87	2.79834e+007
1663.39	2.59126e+007
1662.9	2.36095e+007
1662.42	2.29721e+007
1661.94	2.40819e+007
1661.46	2.56286e+007
1660.98	2.67594e+007
1660.49	2.74701e+007
1660.01	2.78035e+007
1659.53	2.77481e+007
1659.05	2.7637e+007
1658.56	2.77845e+007
1658.08	2.7918e+007
1657.6	2.76557e+007
1657.12	2.72967e+007
1656.63	2.7393e+007
1656.15	2.76781e+007
1655.67	2.7194e+007
1655.19	2.55308e+007
1654.71	2.32197e+007
1654.22	2.06887e+007
1653.74	1.75965e+007
1653.26	1.38745e+007
1652.78	1.10151e+007
1652.29	1.12715e+007
1651.81	1.51691e+007
1651.33	2.04717e+007
1650.85	2.43077e+007
1650.37	2.59371e+007
1649.88	2.65897e+007
1649.4	2.6945e+007
1648.92	2.62418e+007
1648.44	2.42369e+007
1647.95	2.2424e+007
1647.47	2.2061e+007
1646.99	2.21116e+007
1646.51	2.08323e+007
1646.02	1.88197e+007
1645.54	1.85707e+007
1645.06	2.0983e+007
1644.58	2.41046e+007
1644.1	2.58326e+007
1643.61	2.62274e+007
1643.13	2.63873e+007
1642.65	2.65288e+007
1642.17	2.63399e+007
1641.68	2.61236e+007
1641.2	2.62885e+007
1640.72	2.64282e+007
1640.24	2.60843e+007
1639.76	2.57869e+007
1639.27	2.61243e+007
1638.79	2.63762e+007
1638.31	2.54894e+007
1637.83	2.40217e+007
1637.34	2.34738e+007
1636.86	2.36741e+007
1636.38	2.25826e+007
1635.9	1.93357e+007
1635.41	1.60639e+007
1634.93	1.56133e+007
1634.45	1.82955e+007
1633.97	2.18919e+007
1633.49	2.43117e+007
1633	2.5235e+007
1632.52	2.54303e+007
1632.04	2.55134e+007
1631.56	2.56003e+007
1631.07	2.55827e+007
1630.59	2.54281e+007
1630.11	2.53188e+007
1629.63	2.54309e+007
1629.14	2.54786e+007
1628.66	2.48364e+007
1628.18	2.34671e+007
1627.7	2.23602e+007
1627.22	2.24851e+007
1626.73	2.35532e+007
1626.25	2.44639e+007
1625.77	2.47813e+007
1625.29	2.49161e+007
1624.8	2.48459e+007
1624.32	2.3771e+007
1623.84	2.15924e+007
1623.36	1.9814e+007
1622.88	1.99992e+007
1622.39	2.17774e+007
1621.91	2.3373e+007
1621.43	2.39002e+007
1620.95	2.40589e+007
1620.46	2.45083e+007
1619.98	2.47925e+007
1619.5	2.44656e+007
1619.02	2.4196e+007
1618.53	2.46292e+007
1618.05	2.47551e+007
1617.57	2.28283e+007
1617.09	1.90426e+007
1616.61	1.60645e+007
1616.12	1.627e+007
1615.64	1.91815e+007
1615.16	2.23043e+007
1614.68	2.39372e+007
1614.19	2.43452e+007
1613.71	2.45e+007
1613.23	2.4712e+007
1612.75	2.47619e+007
1612.27	2.46404e+007
1611.78	2.45995e+007
1611.3	2.47108e+007
1610.82	2.47649e+007
1610.34	2.45747e+007
1609.85	2.41955e+007
1609.37	2.38689e+007
1608.89	2.382e+007
1608.41	2.40428e+007
1607.92	2.42682e+007
1607.44	2.42475e+007
1606.96	2.40646e+007
1606.48	2.40198e+007
1606	2.42138e+007
1605.51	2.44427e+007
1605.03	2.45195e+007
1604.55	2.44758e+007
1604.07	2.43871e+007
1603.58	2.42394e+007
1603.1	2.40748e+007
1602.62	2.40467e+007
1602.14	2.41868e+007
1601.65	2.43076e+007
1601.17	2.42849e+007
1600.69	2.42565e+007
1600.21	2.43772e+007
1599.73	2.45506e+007
1599.24	2.46037e+007
1598.76	2.45782e+007
1598.28	2.4627e+007
1597.8	2.47264e+007
1597.31	2.47228e+007
1596.83	2.46112e+007
1596.35	2.45435e+007
1595.87	2.45651e+007
1595.39	2.45428e+007
1594.9	2.43967e+007
1594.42	2.42513e+007
1593.94	2.42814e+007
1593.46	2.44893e+007
1592.97	2.47059e+007
1592.49	2.47829e+007
1592.01	2.4739e+007
1591.53	2.47005e+007
1591.04	2.47231e+007
1590.56	2.47316e+007
1590.08	2.46618e+007
1589.6	2.4583e+007
1589.12	2.45971e+007
1588.63	2.46801e+007
1588.15	2.47282e+007
1587.67	2.47158e+007
1587.19	2.46937e+007
1586.7	2.4675e+007
1586.22	2.46385e+007
1585.74	2.46037e+007
1585.26	2.45918e+007
1584.78	2.45671e+007
1584.29	2.45133e+007
1583.81	2.44824e+007
1583.33	2.44773e+007
1582.85	2.44151e+007
1582.36	2.43055e+007
1581.88	2.42787e+007
1581.4	2.43285e+007
1580.92	2.42847e+007
1580.43	2.41609e+007
1579.95	2.41755e+007
1579.47	2.42723e+007
1578.99	2.41268e+007
1578.51	2.38494e+007
1578.02	2.39127e+007
1577.54	2.38772e+007
1577.06	2.221e+007
1576.58	1.85176e+007
1576.09	1.51851e+007
1575.61	1.51671e+007
1575.13	1.83569e+007
1574.65	2.17567e+007
1574.16	2.32664e+007
1573.68	2.35629e+007
1573.2	2.39294e+007
1572.72	2.42219e+007
1572.24	2.39802e+007
1571.75	2.38085e+007
1571.27	2.41449e+007
1570.79	2.38774e+007
1570.31	2.18593e+007
1569.82	1.91037e+007
1569.34	1.78839e+007
1568.86	1.89602e+007
1568.38	2.10093e+007
1567.9	2.25898e+007
1567.41	2.34477e+007
1566.93	2.39118e+007
1566.45	2.4081e+007
1565.97	2.385e+007
1565.48	2.31718e+007
1565	2.22606e+007
1564.52	2.17564e+007
1564.04	2.22433e+007
1563.55	2.3313e+007
1563.07	2.3859e+007
1562.59	2.37005e+007
1562.11	2.38024e+007
1561.63	2.4173e+007
1561.14	2.29924e+007
1560.66	1.92447e+007
1560.18	1.4969e+007
1559.7	1.298e+007
1559.21	1.31629e+007
1558.73	1.3145e+007
1558.25	1.21902e+007
1557.77	1.21223e+007
1557.29	1.4293e+007
1556.8	1.77741e+007
1556.32	2.0947e+007
1555.84	2.29659e+007
1555.36	2.32098e+007
1554.87	2.13187e+007
1554.39	1.86226e+007
1553.91	1.77265e+007
1553.43	1.95548e+007
1552.94	2.21785e+007
1552.46	2.35074e+007
1551.98	2.37013e+007
1551.5	2.38444e+007
1551.02	2.37546e+007
1550.53	2.27004e+007
1550.05	2.1285e+007
1549.57	2.09164e+007
1549.09	2.18145e+007
1548.6	2.29013e+007
1548.12	2.34494e+007
1547.64	2.37083e+007
1547.16	2.39837e+007
1546.67	2.40156e+007
1546.19	2.33515e+007
1545.71	2.18605e+007
1545.23	2.00291e+007
1544.75	1.89832e+007
1544.26	1.96254e+007
1543.78	2.12703e+007
1543.3	2.18398e+007
1542.82	2.01767e+007
1542.33	1.76128e+007
1541.85	1.63928e+007
1541.37	1.69582e+007
1540.89	1.76836e+007
1540.41	1.70419e+007
1539.92	1.516e+007
1539.44	1.33567e+007
1538.96	1.29659e+007
1538.48	1.46103e+007
1537.99	1.78432e+007
1537.51	2.12533e+007
1537.03	2.34285e+007
1536.55	2.41006e+007
1536.06	2.41304e+007
1535.58	2.42904e+007
1535.1	2.43175e+007
1534.62	2.33489e+007
1534.14	2.12288e+007
1533.65	1.91548e+007
1533.17	1.87128e+007
1532.69	2.01738e+007
1532.21	2.21449e+007
1531.72	2.32344e+007
1531.24	2.3585e+007
1530.76	2.41537e+007
1530.28	2.49891e+007
1529.8	2.52483e+007
1529.31	2.46909e+007
1528.83	2.39767e+007
1528.35	2.34687e+007
1527.87	2.29505e+007
1527.38	2.26176e+007
1526.9	2.29568e+007
1526.42	2.33634e+007
1525.94	2.24887e+007
1525.45	2.06094e+007
1524.97	1.99772e+007
1524.49	2.17146e+007
1524.01	2.38813e+007
1523.53	2.40456e+007
1523.04	2.24456e+007
1522.56	2.0903e+007
1522.08	1.97708e+007
1521.6	1.81095e+007
1521.11	1.62728e+007
1520.63	1.60076e+007
1520.15	1.79026e+007
1519.67	2.06181e+007
1519.18	2.28302e+007
1518.7	2.42081e+007
1518.22	2.43183e+007
1517.74	2.25744e+007
1517.26	1.99517e+007
1516.77	1.88942e+007
1516.29	2.03894e+007
1515.81	2.25381e+007
1515.33	2.32117e+007
1514.84	2.28912e+007
1514.36	2.34339e+007
1513.88	2.49429e+007
1513.4	2.55954e+007
1512.92	2.43889e+007
1512.43	2.25677e+007
1511.95	2.1984e+007
1511.47	2.29718e+007
1510.99	2.4268e+007
1510.5	2.45439e+007
1510.02	2.36743e+007
1509.54	2.26332e+007
1509.06	2.22339e+007
1508.57	2.20538e+007
1508.09	2.09278e+007
1507.61	1.85517e+007
1507.13	1.60281e+007
1506.65	1.4543e+007
1506.16	1.41802e+007
1505.68	1.45866e+007
1505.2	1.60553e+007
1504.72	1.89259e+007
1504.23	2.22909e+007
1503.75	2.44946e+007
1503.27	2.49998e+007
1502.79	2.47782e+007
1502.31	2.46988e+007
1501.82	2.45794e+007
1501.34	2.42044e+007
1500.86	2.41383e+007
1500.38	2.46483e+007
1499.89	2.46653e+007
1499.41	2.30828e+007
1498.93	2.07956e+007
1498.45	2.00903e+007
1497.96	2.16712e+007
1497.48	2.33868e+007
1497	2.27196e+007
1496.52	1.99646e+007
1496.04	1.79911e+007
1495.55	1.89251e+007
1495.07	2.19142e+007
1494.59	2.44617e+007
1494.11	2.52822e+007
1493.62	2.51698e+007
1493.14	2.53542e+007
1492.66	2.58894e+007
1492.18	2.59559e+007
1491.69	2.51257e+007
1491.21	2.37286e+007
1490.73	2.22553e+007
1490.25	2.10676e+007
1489.77	2.06561e+007
1489.28	2.14481e+007
1488.8	2.30313e+007
1488.32	2.41206e+007
1487.84	2.38434e+007
1487.35	2.28165e+007
1486.87	2.2456e+007
1486.39	2.3338e+007
1485.91	2.47136e+007
1485.43	2.56017e+007
1484.94	2.58305e+007
1484.46	2.58446e+007
1483.98	2.59433e+007
1483.5	2.60612e+007
1483.01	2.6075e+007
1482.53	2.59671e+007
1482.05	2.57248e+007
1481.57	2.53467e+007
1481.08	2.50053e+007
1480.6	2.49987e+007
1480.12	2.53974e+007
1479.64	2.58486e+007
1479.16	2.5945e+007
1478.67	2.57793e+007
1478.19	2.58174e+007
1477.71	2.60386e+007
1477.23	2.56041e+007
1476.74	2.39579e+007
1476.26	2.20809e+007
1475.78	2.1758e+007
1475.3	2.32881e+007
1474.82	2.47571e+007
1474.33	2.42601e+007
1473.85	2.21849e+007
1473.37	2.03782e+007
1472.89	1.95926e+007
1472.4	1.90829e+007
1471.92	1.86143e+007
1471.44	1.92645e+007
1470.96	2.15699e+007
1470.47	2.41511e+007
1469.99	2.52947e+007
1469.51	2.5132e+007
1469.03	2.50622e+007
1468.55	2.55077e+007
1468.06	2.56145e+007
1467.58	2.50968e+007
1467.1	2.48974e+007
1466.62	2.54669e+007
1466.13	2.5592e+007
1465.65	2.39794e+007
1465.17	2.13756e+007
1464.69	1.99762e+007
1464.2	2.08437e+007
1463.72	2.2872e+007
1463.24	2.44084e+007
1462.76	2.4985e+007
1462.28	2.50921e+007
1461.79	2.50922e+007
1461.31	2.50525e+007
1460.83	2.50956e+007
1460.35	2.51288e+007
1459.86	2.45826e+007
1459.38	2.32113e+007
1458.9	2.18119e+007
1458.42	2.11506e+007
1457.94	2.04329e+007
1457.45	1.82316e+007
1456.97	1.5124e+007
1456.49	1.38321e+007
1456.01	1.59025e+007
1455.52	1.95513e+007
1455.04	2.19872e+007
1454.56	2.27888e+007
1454.08	2.3469e+007
1453.59	2.45291e+007
1453.11	2.49162e+007
1452.63	2.42553e+007
1452.15	2.36716e+007
1451.67	2.39323e+007
1451.18	2.43616e+007
1450.7	2.42922e+007
1450.22	2.42333e+007
1449.74	2.46923e+007
1449.25	2.494e+007
1448.77	2.40456e+007
1448.29	2.2464e+007
1447.81	2.15647e+007
1447.32	2.1947e+007
1446.84	2.30203e+007
1446.36	2.39692e+007
1445.88	2.44469e+007
1445.4	2.45083e+007
1444.91	2.44234e+007
1444.43	2.44744e+007
1443.95	2.46366e+007
1443.47	2.46458e+007
1442.98	2.4506e+007
1442.5	2.45207e+007
1442.02	2.46945e+007
1441.54	2.46758e+007
1441.06	2.44695e+007
1440.57	2.45083e+007
1440.09	2.47798e+007
1439.61	2.47344e+007
1439.13	2.44053e+007
1438.64	2.45341e+007
1438.16	2.49188e+007
1437.68	2.38614e+007
1437.2	2.05286e+007
1436.71	1.70041e+007
1436.23	1.63793e+007
1435.75	1.90576e+007
1435.27	2.2412e+007
1434.79	2.40979e+007
1434.3	2.42635e+007
1433.82	2.42044e+007
1433.34	2.43027e+007
1432.86	2.41807e+007
1432.37	2.39347e+007
1431.89	2.40719e+007
1431.41	2.44879e+007
1430.93	2.4409e+007
1430.45	2.34832e+007
1429.96	2.23911e+007
1429.48	2.21106e+007
1429	2.28153e+007
1428.52	2.37718e+007
1428.03	2.42637e+007
1427.55	2.4304e+007
1427.07	2.43101e+007
1426.59	2.44099e+007
1426.1	2.44431e+007
1425.62	2.44034e+007
1425.14	2.43411e+007
1424.66	2.39811e+007
1424.18	2.31252e+007
1423.69	2.23764e+007
1423.21	2.26028e+007
1422.73	2.35827e+007
1422.25	2.41778e+007
1421.76	2.40946e+007
1421.28	2.42207e+007
1420.8	2.46195e+007
1420.32	2.36677e+007
1419.83	2.051e+007
1419.35	1.72401e+007
1418.87	1.68213e+007
1418.39	1.93047e+007
1417.91	2.18969e+007
1417.42	2.26816e+007
1416.94	2.24863e+007
1416.46	2.27892e+007
1415.98	2.35496e+007
1415.49	2.3951e+007
1415.01	2.39623e+007
1414.53	2.4077e+007
1414.05	2.42956e+007
1413.57	2.43115e+007
1413.08	2.42015e+007
1412.6	2.41945e+007
1412.12	2.41646e+007
1411.64	2.3955e+007
1411.15	2.38112e+007
1410.67	2.39567e+007
1410.19	2.41302e+007
1409.71	2.40499e+007
1409.22	2.39415e+007
1408.74	2.40926e+007
1408.26	2.42752e+007
1407.78	2.41732e+007
1407.3	2.40196e+007
1406.81	2.41773e+007
1406.33	2.43509e+007
1405.85	2.39077e+007
1405.37	2.29018e+007
1404.88	2.21518e+007
1404.4	2.2251e+007
1403.92	2.29781e+007
1403.44	2.37371e+007
1402.96	2.41555e+007
1402.47	2.41851e+007
1401.99	2.40125e+007
1401.51	2.39757e+007
1401.03	2.42198e+007
1400.54	2.43259e+007
1400.06	2.3645e+007
1399.58	2.22084e+007
1399.1	2.09939e+007
1398.61	2.09569e+007
1398.13	2.19481e+007
1397.65	2.29358e+007
1397.17	2.32528e+007
1396.69	2.32021e+007
1396.2	2.32652e+007
1395.72	2.3152e+007
1395.24	2.22072e+007
1394.76	2.06785e+007
1394.27	1.98887e+007
1393.79	2.07559e+007
1393.31	2.25852e+007
1392.83	2.38784e+007
1392.34	2.40899e+007
1391.86	2.39354e+007
1391.38	2.4057e+007
1390.9	2.42038e+007
1390.42	2.40074e+007
1389.93	2.38131e+007
1389.45	2.40894e+007
1388.97	2.44281e+007
1388.49	2.39109e+007
1388	2.24451e+007
1387.52	2.10971e+007
1387.04	2.09083e+007
1386.56	2.18105e+007
1386.08	2.29385e+007
1385.59	2.36565e+007
1385.11	2.39558e+007
1384.63	2.40682e+007
1384.15	2.41019e+007
1383.66	2.40832e+007
1383.18	2.4068e+007
1382.7	2.40804e+007
1382.22	2.40701e+007
1381.73	2.40187e+007
1381.25	2.39904e+007
1380.77	2.40145e+007
1380.29	2.40186e+007
1379.81	2.39503e+007
1379.32	2.38638e+007
1378.84	2.38028e+007
1378.36	2.37172e+007
1377.88	2.36139e+007
1377.39	2.3646e+007
1376.91	2.38637e+007
1376.43	2.40011e+007
1375.95	2.37656e+007
1375.47	2.32587e+007
1374.98	2.28194e+007
1374.5	2.25166e+007
1374.02	2.21793e+007
1373.54	2.19273e+007
1373.05	2.21836e+007
1372.57	2.29804e+007
1372.09	2.37127e+007
1371.61	2.38921e+007
1371.12	2.37643e+007
1370.64	2.38104e+007
1370.16	2.39773e+007
1369.68	2.38718e+007
1369.2	2.34791e+007
1368.71	2.3181e+007
1368.23	2.31776e+007
1367.75	2.33463e+007
1367.27	2.35805e+007
1366.78	2.38288e+007
1366.3	2.39039e+007
1365.82	2.37214e+007
1365.34	2.36151e+007
1364.85	2.38646e+007
1364.37	2.40036e+007
1363.89	2.3302e+007
1363.41	2.20007e+007
1362.93	2.12846e+007
1362.44	2.17347e+007
1361.96	2.25352e+007
1361.48	2.26915e+007
1361	2.23913e+007
1360.51	2.24962e+007
1360.03	2.31498e+007
1359.55	2.36871e+007
1359.07	2.37266e+007
1358.59	2.35862e+007
1358.1	2.35968e+007
1357.62	2.36606e+007
1357.14	2.36404e+007
1356.66	2.36506e+007
1356.17	2.37466e+007
1355.69	2.37343e+007
1355.21	2.35238e+007
1354.73	2.33534e+007
1354.24	2.34371e+007
1353.76	2.3644e+007
1353.28	2.37364e+007
1352.8	2.37099e+007
1352.32	2.36947e+007
1351.83	2.37028e+007
1351.35	2.36818e+007
1350.87	2.36729e+007
1350.39	2.37166e+007
1349.9	2.37207e+007
1349.42	2.36086e+007
1348.94	2.34976e+007
1348.46	2.35415e+007
1347.98	2.36802e+007
1347.49	2.37357e+007
1347.01	2.36907e+007
1346.53	2.36749e+007
1346.05	2.37175e+007
1345.56	2.37213e+007
1345.08	2.36746e+007
1344.6	2.368e+007
1344.12	2.37444e+007
1343.63	2.37422e+007
1343.15	2.36507e+007
1342.67	2.36261e+007
1342.19	2.37342e+007
1341.71	2.37763e+007
1341.22	2.35394e+007
1340.74	2.30963e+007
1340.26	2.26943e+007
1339.78	2.24451e+007
1339.29	2.23149e+007
1338.81	2.23405e+007
1338.33	2.26089e+007
1337.85	2.30067e+007
1337.36	2.3237e+007
1336.88	2.31866e+007
1336.4	2.30954e+007
1335.92	2.32283e+007
1335.44	2.35215e+007
1334.95	2.37102e+007
1334.47	2.37019e+007
1333.99	2.36395e+007
1333.51	2.36427e+007
1333.02	2.36723e+007
1332.54	2.36633e+007
1332.06	2.36374e+007
1331.58	2.36312e+007
1331.1	2.36231e+007
1330.61	2.35895e+007
1330.13	2.35589e+007
1329.65	2.35608e+007
1329.17	2.35742e+007
1328.68	2.35647e+007
1328.2	2.35336e+007
1327.72	2.35011e+007
1327.24	2.34775e+007
1326.75	2.34646e+007
1326.27	2.34564e+007
1325.79	2.34347e+007
1325.31	2.33948e+007
1324.83	2.33659e+007
1324.34	2.33677e+007
1323.86	2.33723e+007
1323.38	2.33548e+007
1322.9	2.33469e+007
1322.41	2.33764e+007
1321.93	2.33984e+007
1321.45	2.33703e+007
1320.97	2.33445e+007
1320.49	2.33706e+007
1320	2.33564e+007
1319.52	2.31901e+007
1319.04	2.29821e+007
1318.56	2.29816e+007
1318.07	2.3215e+007
1317.59	2.34132e+007
1317.11	2.33893e+007
1316.63	2.32918e+007
1316.14	2.33423e+007
1315.66	2.34974e+007
1315.18	2.35616e+007
1314.7	2.35077e+007
1314.22	2.34655e+007
1313.73	2.34623e+007
1313.25	2.3403e+007
1312.77	2.32939e+007
1312.29	2.32763e+007
1311.8	2.34014e+007
1311.32	2.35437e+007
1310.84	2.35912e+007
1310.36	2.35816e+007
1309.87	2.359e+007
1309.39	2.36027e+007
1308.91	2.35761e+007
1308.43	2.3531e+007
1307.95	2.35138e+007
1307.46	2.35248e+007
1306.98	2.35387e+007
1306.5	2.35511e+007
1306.02	2.35625e+007
1305.53	2.356e+007
1305.05	2.35438e+007
1304.57	2.35337e+007
1304.09	2.35333e+007
1303.61	2.35279e+007
1303.12	2.35246e+007
1302.64	2.35437e+007
1302.16	2.35667e+007
1301.68	2.35529e+007
1301.19	2.35149e+007
1300.71	2.35133e+007
1300.23	2.35609e+007
1299.75	2.35986e+007
1299.26	2.35853e+007
1298.78	2.35515e+007
1298.3	2.35375e+007
1297.82	2.35385e+007
1297.34	2.35369e+007
1296.85	2.35346e+007
1296.37	2.35289e+007
1295.89	2.35043e+007
1295.41	2.34742e+007
1294.92	2.34809e+007
1294.44	2.35282e+007
1293.96	2.35616e+007
1293.48	2.35418e+007
1293	2.34951e+007
1292.51	2.34662e+007
1292.03	2.34603e+007
1291.55	2.34584e+007
1291.07	2.34524e+007
1290.58	2.34406e+007
1290.1	2.34193e+007
1289.62	2.33956e+007
1289.14	2.3381e+007
1288.65	2.33638e+007
1288.17	2.33234e+007
1287.69	2.32762e+007
1287.21	2.32643e+007
1286.73	2.32946e+007
1286.24	2.33314e+007
1285.76	2.33556e+007
1285.28	2.33801e+007
1284.8	2.33993e+007
1284.31	2.33796e+007
1283.83	2.33199e+007
1283.35	2.32704e+007
1282.87	2.32656e+007
1282.38	2.32814e+007
1281.9	2.32804e+007
1281.42	2.32592e+007
1280.94	2.32306e+007
1280.46	2.31983e+007
1279.97	2.31698e+007
1279.49	2.31598e+007
1279.01	2.31632e+007
1278.53	2.31545e+007
1278.04	2.3123e+007
1277.56	2.30817e+007
1277.08	2.30397e+007
1276.6	2.30007e+007
1276.12	2.29797e+007
1275.63	2.29785e+007
1275.15	2.29565e+007
1274.67	2.28822e+007
1274.19	2.28023e+007
1273.7	2.27853e+007
1273.22	2.28011e+007
1272.74	2.27434e+007
1272.26	2.25916e+007
1271.77	2.24608e+007
1271.29	2.24526e+007
1270.81	2.2532e+007
1270.33	2.26023e+007
1269.85	2.26336e+007
1269.36	2.26565e+007
1268.88	2.2684e+007
1268.4	2.2707e+007
1267.92	2.27327e+007
1267.43	2.27707e+007
1266.95	2.2799e+007
1266.47	2.27916e+007
1265.99	2.27634e+007
1265.51	2.27494e+007
1265.02	2.27557e+007
1264.54	2.27611e+007
1264.06	2.27494e+007
1263.58	2.27171e+007
1263.09	2.26695e+007
1262.61	2.26262e+007
1262.13	2.26071e+007
1261.65	2.25935e+007
1261.16	2.25383e+007
1260.68	2.24348e+007
1260.2	2.2341e+007
1259.72	2.23077e+007
1259.24	2.23168e+007
1258.75	2.23204e+007
1258.27	2.23049e+007
1257.79	2.22813e+007
1257.31	2.22441e+007
1256.82	2.21843e+007
1256.34	2.21247e+007
1255.86	2.20956e+007
1255.38	2.20852e+007
1254.89	2.2053e+007
1254.41	2.1987e+007
1253.93	2.1915e+007
1253.45	2.18588e+007
1252.97	2.18095e+007
1252.48	2.17516e+007
1252	2.16882e+007
1251.52	2.16325e+007
1251.04	2.15896e+007
1250.55	2.15553e+007
1250.07	2.15226e+007
1249.59	2.14832e+007
1249.11	2.14303e+007
1248.63	2.13654e+007
1248.14	2.13007e+007
1247.66	2.12499e+007
1247.18	2.1214e+007
1246.7	2.11814e+007
1246.21	2.11413e+007
1245.73	2.10943e+007
1245.25	2.10444e+007
1244.77	2.09911e+007
1244.28	2.09379e+007
1243.8	2.09007e+007
1243.32	2.08875e+007
1242.84	2.08773e+007
1242.36	2.08441e+007
1241.87	2.08008e+007
1241.39	2.07854e+007
1240.91	2.08004e+007
1240.43	2.08037e+007
1239.94	2.07721e+007
1239.46	2.07351e+007
1238.98	2.07241e+007
1238.5	2.07252e+007
1238.02	2.07145e+007
1237.53	2.07036e+007
1237.05	2.07143e+007
1236.57	2.0733e+007
1236.09	2.07335e+007
1235.6	2.07239e+007
1235.12	2.07319e+007
1234.64	2.07581e+007
1234.16	2.07801e+007
1233.67	2.07918e+007
1233.19	2.08047e+007
1232.71	2.08209e+007
1232.23	2.08362e+007
1231.75	2.08576e+007
1231.26	2.08885e+007
1230.78	2.09089e+007
1230.3	2.09026e+007
1229.82	2.0891e+007
1229.33	2.09072e+007
1228.85	2.09466e+007
1228.37	2.09743e+007
1227.89	2.09773e+007
1227.4	2.09763e+007
1226.92	2.09906e+007
1226.44	2.10165e+007
1225.96	2.10406e+007
1225.48	2.10537e+007
1224.99	2.10548e+007
1224.51	2.10562e+007
1224.03	2.10766e+007
1223.55	2.11167e+007
1223.06	2.1154e+007
1222.58	2.11728e+007
1222.1	2.11828e+007
1221.62	2.11953e+007
1221.14	2.12056e+007
1220.65	2.12134e+007
1220.17	2.12332e+007
1219.69	2.1265e+007
1219.21	2.1281e+007
1218.72	2.12661e+007
1218.24	2.12472e+007
1217.76	2.12572e+007
1217.28	2.12903e+007
1216.79	2.1318e+007
1216.31	2.13291e+007
1215.83	2.13285e+007
1215.35	2.13184e+007
1214.87	2.13063e+007
1214.38	2.131e+007
1213.9	2.13307e+007
1213.42	2.134e+007
1212.94	2.13198e+007
1212.45	2.1294e+007
1211.97	2.12954e+007
1211.49	2.13198e+007
1211.01	2.13403e+007
1210.53	2.13482e+007
1210.04	2.13537e+007
1209.56	2.13594e+007
1209.08	2.13603e+007
1208.6	2.13613e+007
1208.11	2.13715e+007
1207.63	2.1385e+007
1207.15	2.13875e+007
1206.67	2.13763e+007
1206.18	2.13651e+007
1205.7	2.13714e+007
1205.22	2.14018e+007
1204.74	2.1441e+007
1204.26	2.14578e+007
1203.77	2.14397e+007
1203.29	2.14152e+007
1202.81	2.14217e+007
1202.33	2.14564e+007
1201.84	2.14843e+007
1201.36	2.149e+007
1200.88	2.14911e+007
1200.4	2.15026e+007
1199.91	2.15228e+007
1199.43	2.15527e+007
1198.95	2.15937e+007
1198.47	2.1629e+007
1197.99	2.16407e+007
1197.5	2.16446e+007
1197.02	2.1671e+007
1196.54	2.17165e+007
1196.06	2.17533e+007
1195.57	2.17792e+007
1195.09	2.1813e+007
1194.61	2.18468e+007
1194.13	2.18569e+007
1193.65	2.18563e+007
1193.16	2.18804e+007
1192.68	2.19201e+007
1192.2	2.1931e+007
1191.72	2.19133e+007
1191.23	2.19179e+007
1190.75	2.19617e+007
1190.27	2.19999e+007
1189.79	2.20009e+007
1189.3	2.19877e+007
1188.82	2.19842e+007
1188.34	2.19789e+007
1187.86	2.19673e+007
1187.38	2.19745e+007
1186.89	2.20054e+007
1186.41	2.2024e+007
1185.93	2.20098e+007
1185.45	2.19911e+007
1184.96	2.19969e+007
1184.48	2.20152e+007
1184	2.20238e+007
1183.52	2.20228e+007
1183.04	2.20178e+007
1182.55	2.20081e+007
1182.07	2.20045e+007
1181.59	2.20215e+007
1181.11	2.20432e+007
1180.62	2.20393e+007
1180.14	2.20173e+007
1179.66	2.20149e+007
1179.18	2.20368e+007
1178.69	2.20484e+007
1178.21	2.20381e+007
1177.73	2.20294e+007
1177.25	2.20283e+007
1176.77	2.20163e+007
1176.28	2.19998e+007
1175.8	2.20056e+007
1175.32	2.20221e+007
1174.84	2.20094e+007
1174.35	2.19762e+007
1173.87	2.19746e+007
1173.39	2.20083e+007
1172.91	2.20221e+007
1172.42	2.19981e+007
1171.94	2.19854e+007
1171.46	2.20057e+007
1170.98	2.20123e+007
1170.5	2.19778e+007
1170.01	2.19486e+007
1169.53	2.1964e+007
1169.05	2.19869e+007
1168.57	2.19676e+007
1168.08	2.19222e+007
1167.6	2.18971e+007
1167.12	2.18976e+007
1166.64	2.18999e+007
1166.16	2.18976e+007
1165.67	2.18943e+007
1165.19	2.18815e+007
1164.71	2.1858e+007
1164.23	2.1842e+007
1163.74	2.18406e+007
1163.26	2.18347e+007
1162.78	2.18145e+007
1162.3	2.17964e+007
1161.81	2.1788e+007
1161.33	2.17753e+007
1160.85	2.17581e+007
1160.37	2.17554e+007
1159.89	2.17621e+007
1159.4	2.17457e+007
1158.92	2.17046e+007
1158.44	2.16793e+007
1157.96	2.16858e+007
1157.47	2.16889e+007
1156.99	2.16633e+007
1156.51	2.16357e+007
1156.03	2.16345e+007
1155.55	2.1643e+007
1155.06	2.16325e+007
1154.58	2.16083e+007
1154.1	2.15907e+007
1153.62	2.15805e+007
1153.13	2.15671e+007
1152.65	2.15508e+007
1152.17	2.15382e+007
1151.69	2.15351e+007
1151.2	2.15483e+007
1150.72	2.15735e+007
1150.24	2.15836e+007
1149.76	2.15597e+007
1149.28	2.15266e+007
1148.79	2.15221e+007
1148.31	2.15385e+007
1147.83	2.15384e+007
1147.35	2.15203e+007
1146.86	2.15159e+007
1146.38	2.1529e+007
1145.9	2.15305e+007
1145.42	2.15149e+007
1144.93	2.15067e+007
1144.45	2.15095e+007
1143.97	2.1502e+007
1143.49	2.14886e+007
1143.01	2.14957e+007
1142.52	2.15149e+007
1142.04	2.15097e+007
1141.56	2.1481e+007
1141.08	2.14667e+007
1140.59	2.14699e+007
1140.11	2.14537e+007
1139.63	2.14153e+007
1139.15	2.13965e+007
1138.67	2.14055e+007
1138.18	2.14009e+007
1137.7	2.1371e+007
1137.22	2.13575e+007
1136.74	2.13741e+007
1136.25	2.13728e+007
1135.77	2.13289e+007
1135.29	2.12897e+007
1134.81	2.1294e+007
1134.32	2.13051e+007
1133.84	2.12767e+007
1133.36	2.12313e+007
1132.88	2.1216e+007
1132.4	2.12233e+007
1131.91	2.12124e+007
1131.43	2.11806e+007
1130.95	2.11575e+007
1130.47	2.11474e+007
1129.98	2.11277e+007
1129.5	2.10949e+007
1129.02	2.10702e+007
1128.54	2.10627e+007
1128.06	2.10581e+007
1127.57	2.10418e+007
1127.09	2.1013e+007
1126.61	2.09792e+007
1126.13	2.0952e+007
1125.64	2.09391e+007
1125.16	2.09321e+007
1124.68	2.09139e+007
1124.2	2.08858e+007
1123.71	2.08686e+007
1123.23	2.08703e+007
1122.75	2.0873e+007
1122.27	2.08631e+007
1121.79	2.0851e+007
1121.3	2.08489e+007
1120.82	2.08488e+007
1120.34	2.0838e+007
1119.86	2.08201e+007
1119.37	2.08065e+007
1118.89	2.07997e+007
1118.41	2.07986e+007
1117.93	2.08049e+007
1117.44	2.08139e+007
1116.96	2.08114e+007
1116.48	2.07931e+007
1116	2.07745e+007
1115.52	2.07713e+007
1115.03	2.07783e+007
1114.55	2.07779e+007
1114.07	2.07646e+007
1113.59	2.07492e+007
1113.1	2.07434e+007
1112.62	2.07468e+007
1112.14	2.07502e+007
1111.66	2.07478e+007
1111.18	2.07426e+007
1110.69	2.07394e+007
1110.21	2.07353e+007
1109.73	2.07253e+007
1109.25	2.07149e+007
1108.76	2.07138e+007
1108.28	2.07174e+007
1107.8	2.07085e+007
1107.32	2.06855e+007
1106.83	2.06683e+007
1106.35	2.06689e+007
1105.87	2.06705e+007
1105.39	2.06524e+007
1104.91	2.06204e+007
1104.42	2.05967e+007
1103.94	2.05879e+007
1103.46	2.05808e+007
1102.98	2.05637e+007
1102.49	2.05375e+007
1102.01	2.05073e+007
1101.53	2.04772e+007
1101.05	2.04517e+007
1100.57	2.04342e+007
1100.08	2.04223e+007
1099.6	2.04085e+007
1099.12	2.0385e+007
1098.64	2.03511e+007
1098.15	2.03165e+007
1097.67	2.02941e+007
1097.19	2.02809e+007
1096.71	2.02585e+007
1096.22	2.02197e+007
1095.74	2.01839e+007
1095.26	2.01686e+007
1094.78	2.01605e+007
1094.3	2.01363e+007
1093.81	2.01009e+007
1093.33	2.0076e+007
1092.85	2.00614e+007
1092.37	2.0038e+007
1091.88	2.00056e+007
1091.4	1.99829e+007
1090.92	1.99705e+007
1090.44	1.99483e+007
1089.95	1.99131e+007
1089.47	1.9885e+007
1088.99	1.98722e+007
1088.51	1.98583e+007
1088.03	1.98336e+007
1087.54	1.98072e+007
1087.06	1.97845e+007
1086.58	1.97598e+007
1086.1	1.97379e+007
1085.61	1.97322e+007
1085.13	1.97358e+007
1084.65	1.97236e+007
1084.17	1.96897e+007
1083.69	1.96561e+007
1083.2	1.96381e+007
1082.72	1.9629e+007
1082.24	1.9622e+007
1081.76	1.96171e+007
1081.27	1.96034e+007
1080.79	1.95672e+007
1080.31	1.95213e+007
1079.83	1.94958e+007
1079.34	1.94963e+007
1078.86	1.94984e+007
1078.38	1.94882e+007
1077.9	1.94741e+007
1077.42	1.94585e+007
1076.93	1.94339e+007
1076.45	1.94101e+007
1075.97	1.94086e+007
1075.49	1.94209e+007
1075	1.9411e+007
1074.52	1.93703e+007
1074.04	1.93337e+007
1073.56	1.93297e+007
1073.08	1.93444e+007
1072.59	1.93482e+007
1072.11	1.93324e+007
1071.63	1.9307e+007
1071.15	1.92869e+007
1070.66	1.92849e+007
1070.18	1.9298e+007
1069.7	1.92985e+007
1069.22	1.92662e+007
1068.73	1.92226e+007
1068.25	1.92047e+007
1067.77	1.92091e+007
1067.29	1.92006e+007
1066.81	1.91712e+007
1066.32	1.91488e+007
1065.84	1.91464e+007
1065.36	1.91459e+007
1064.88	1.91381e+007
1064.39	1.91355e+007
1063.91	1.91364e+007
1063.43	1.91177e+007
1062.95	1.90766e+007
1062.46	1.90435e+007
1061.98	1.90384e+007
1061.5	1.90477e+007
1061.02	1.90533e+007
1060.54	1.90532e+007
1060.05	1.90434e+007
1059.57	1.90154e+007
1059.09	1.8982e+007
1058.61	1.89727e+007
1058.12	1.8989e+007
1057.64	1.89968e+007
1057.16	1.89759e+007
1056.68	1.89471e+007
1056.2	1.89377e+007
1055.71	1.89476e+007
1055.23	1.89623e+007
1054.75	1.89715e+007
1054.27	1.89647e+007
1053.78	1.89353e+007
1053.3	1.89015e+007
1052.82	1.88946e+007
1052.34	1.89171e+007
1051.85	1.89346e+007
1051.37	1.89215e+007
1050.89	1.88892e+007
1050.41	1.88619e+007
1049.93	1.88499e+007
1049.44	1.88538e+007
1048.96	1.88701e+007
1048.48	1.88813e+007
1048	1.88659e+007
1047.51	1.88297e+007
1047.03	1.88056e+007
1046.55	1.88119e+007
1046.07	1.88305e+007
1045.58	1.88347e+007
1045.1	1.88213e+007
1044.62	1.8805e+007
1044.14	1.87988e+007
1043.66	1.88068e+007
1043.17	1.88234e+007
1042.69	1.88319e+007
1042.21	1.88194e+007
1041.73	1.8795e+007
1041.24	1.87836e+007
1040.76	1.87959e+007
1040.28	1.88174e+007
1039.8	1.8826e+007
1039.32	1.88118e+007
1038.83	1.87825e+007
1038.35	1.87592e+007
1037.87	1.87622e+007
1037.39	1.87882e+007
1036.9	1.88078e+007
1036.42	1.87977e+007
1035.94	1.87687e+007
1035.46	1.87488e+007
1034.97	1.87511e+007
1034.49	1.87687e+007
1034.01	1.87892e+007
1033.53	1.87964e+007
1033.05	1.87752e+007
1032.56	1.87336e+007
1032.08	1.87077e+007
1031.6	1.87208e+007
1031.12	1.87496e+007
1030.63	1.87528e+007
1030.15	1.87226e+007
1029.67	1.86869e+007
1029.19	1.86716e+007
1028.71	1.86817e+007
1028.22	1.87084e+007
1027.74	1.87294e+007
1027.26	1.87166e+007
1026.78	1.86697e+007
1026.29	1.86318e+007
1025.81	1.86421e+007
1025.33	1.86808e+007
1024.85	1.86915e+007
1024.36	1.86538e+007
1023.88	1.86031e+007
1023.4	1.85798e+007
1022.92	1.8588e+007
1022.44	1.86084e+007
1021.95	1.86226e+007
1021.47	1.8616e+007
1020.99	1.85833e+007
1020.51	1.85425e+007
1020.02	1.85264e+007
1019.54	1.85451e+007
1019.06	1.85705e+007
1018.58	1.85673e+007
1018.09	1.85329e+007
1017.61	1.84968e+007
1017.13	1.84869e+007
1016.65	1.85015e+007
1016.17	1.85136e+007
1015.68	1.84972e+007
1015.2	1.84527e+007
1014.72	1.84063e+007
1014.24	1.83863e+007
1013.75	1.83984e+007
1013.27	1.84213e+007
1012.79	1.84248e+007
1012.31	1.83958e+007
1011.83	1.83506e+007
1011.34	1.83201e+007
1010.86	1.83182e+007
1010.38	1.83305e+007
1009.9	1.83341e+007
1009.41	1.83203e+007
1008.93	1.8292e+007
1008.45	1.82545e+007
1007.97	1.82218e+007
1007.48	1.82139e+007
1007	1.82289e+007
1006.52	1.82299e+007
1006.04	1.81862e+007
1005.56	1.81203e+007
1005.07	1.80864e+007
1004.59	1.81014e+007
1004.11	1.81255e+007
1003.63	1.81124e+007
1003.14	1.80588e+007
1002.66	1.80001e+007
1002.18	1.79733e+007
1001.7	1.79862e+007
1001.22	1.80083e+007
1000.73	1.79954e+007
1000.25	1.79384e+007
999.768	1.78803e+007
999.286	1.7867e+007
998.804	1.78921e+007
998.321	1.7911e+007
997.839	1.78977e+007
997.357	1.7862e+007
996.875	1.782e+007
996.392	1.77835e+007
995.91	1.77679e+007
995.428	1.7776e+007
994.946	1.77758e+007
994.463	1.77305e+007
993.981	1.7654e+007
993.499	1.76027e+007
993.016	1.7603e+007
992.534	1.76209e+007
992.052	1.76104e+007
991.57	1.75632e+007
991.087	1.75027e+007
990.605	1.74556e+007
990.123	1.74377e+007
989.64	1.74444e+007
989.158	1.74454e+007
988.676	1.74104e+007
988.194	1.73467e+007
987.711	1.72933e+007
987.229	1.72738e+007
986.747	1.72747e+007
986.264	1.72677e+007
985.782	1.72344e+007
985.3	1.71737e+007
984.818	1.71079e+007
984.335	1.70756e+007
983.853	1.70904e+007
983.371	1.71104e+007
982.888	1.70819e+007
982.406	1.70091e+007
981.924	1.69489e+007
981.442	1.69347e+007
980.959	1.69427e+007
980.477	1.69367e+007
979.995	1.69079e+007
979.513	1.68619e+007
979.03	1.68036e+007
978.548	1.67519e+007
978.066	1.67354e+007
977.583	1.67513e+007
977.101	1.67541e+007
976.619	1.67075e+007
976.137	1.66307e+007
975.654	1.65737e+007
975.172	1.65605e+007
974.69	1.65708e+007
974.207	1.65675e+007
973.725	1.65298e+007
973.243	1.64681e+007
972.761	1.64154e+007
972.278	1.63961e+007
971.796	1.63989e+007
971.314	1.63879e+007
970.831	1.6341e+007
970.349	1.62705e+007
969.867	1.62061e+007
969.385	1.61714e+007
968.902	1.61704e+007
968.42	1.61805e+007
967.938	1.61613e+007
967.455	1.60926e+007
966.973	1.6006e+007
966.491	1.5958e+007
966.009	1.59633e+007
965.526	1.59768e+007
965.044	1.5949e+007
964.562	1.58833e+007
964.08	1.58246e+007
963.597	1.58048e+007
963.115	1.58159e+007
962.633	1.58283e+007
962.15	1.58202e+007
961.668	1.57882e+007
961.186	1.57445e+007
960.704	1.57105e+007
960.221	1.57046e+007
959.739	1.57242e+007
959.257	1.57393e+007
958.774	1.57165e+007
958.292	1.56554e+007
957.81	1.55952e+007
957.328	1.55755e+007
956.845	1.55937e+007
956.363	1.56089e+007
955.881	1.55849e+007
955.398	1.55231e+007
954.916	1.54577e+007
954.434	1.54257e+007
953.952	1.54329e+007
953.469	1.54432e+007
952.987	1.54111e+007
952.505	1.53368e+007
952.023	1.52739e+007
951.54	1.52668e+007
951.058	1.52955e+007
950.576	1.53036e+007
950.093	1.52684e+007
949.611	1.52132e+007
949.129	1.51652e+007
948.647	1.5132e+007
948.164	1.51162e+007
947.682	1.51145e+007
947.2	1.51031e+007
946.717	1.50587e+007
946.235	1.49986e+007
945.753	1.49677e+007
945.271	1.49774e+007
944.788	1.49893e+007
944.306	1.49679e+007
943.824	1.49197e+007
943.341	1.48726e+007
942.859	1.4843e+007
942.377	1.48351e+007
941.895	1.4843e+007
941.412	1.48416e+007
940.93	1.48026e+007
940.448	1.47347e+007
939.965	1.46842e+007
939.483	1.46806e+007
939.001	1.47001e+007
938.519	1.46972e+007
938.036	1.46563e+007
937.554	1.46004e+007
937.072	1.45627e+007
936.59	1.45581e+007
936.107	1.45708e+007
935.625	1.45673e+007
935.143	1.45297e+007
934.66	1.44759e+007
934.178	1.44372e+007
933.696	1.44235e+007
933.214	1.44253e+007
932.731	1.44339e+007
932.249	1.44375e+007
931.767	1.44132e+007
931.284	1.43569e+007
930.802	1.43093e+007
930.32	1.43124e+007
929.838	1.43456e+007
929.355	1.43454e+007
928.873	1.42918e+007
928.391	1.42343e+007
927.908	1.42212e+007
927.426	1.42428e+007
926.944	1.42559e+007
926.462	1.42366e+007
925.979	1.41907e+007
925.497	1.4139e+007
925.015	1.41061e+007
924.532	1.41058e+007
924.05	1.41235e+007
923.568	1.41264e+007
923.086	1.4098e+007
922.603	1.40532e+007
922.121	1.40182e+007
921.639	1.40079e+007
921.157	1.4018e+007
920.674	1.40244e+007
920.192	1.39994e+007
919.71	1.39455e+007
919.227	1.39011e+007
918.745	1.38956e+007
918.263	1.39112e+007
917.781	1.391e+007
917.298	1.38832e+007
916.816	1.38474e+007
916.334	1.38124e+007
915.851	1.37824e+007
915.369	1.37722e+007
914.887	1.37847e+007
914.405	1.37875e+007
913.922	1.37505e+007
913.44	1.36983e+007
912.958	1.36837e+007
912.475	1.37132e+007
911.993	1.37395e+007
911.511	1.37248e+007
911.029	1.36761e+007
910.546	1.36204e+007
910.064	1.3582e+007
909.582	1.35801e+007
909.1	1.36098e+007
908.617	1.36266e+007
908.135	1.35879e+007
907.653	1.35148e+007
907.17	1.34747e+007
906.688	1.34941e+007
906.206	1.35258e+007
905.724	1.35127e+007
905.241	1.34547e+007
904.759	1.3397e+007
904.277	1.33761e+007
903.794	1.33919e+007
903.312	1.34155e+007
902.83	1.34137e+007
902.348	1.33752e+007
901.865	1.33201e+007
901.383	1.32807e+007
900.901	1.32729e+007
900.418	1.32884e+007
899.936	1.33037e+007
899.454	1.32927e+007
898.972	1.3248e+007
898.489	1.31976e+007
898.007	1.31805e+007
897.525	1.31953e+007
897.042	1.31975e+007
896.56	1.31605e+007
896.078	1.3111e+007
895.596	1.30862e+007
895.113	1.30845e+007
894.631	1.30827e+007
894.149	1.30737e+007
893.667	1.30585e+007
893.184	1.30293e+007
892.702	1.29889e+007
892.22	1.29654e+007
891.737	1.29732e+007
891.255	1.29822e+007
890.773	1.29562e+007
890.291	1.29027e+007
889.808	1.28559e+007
889.326	1.28301e+007
888.844	1.28203e+007
888.361	1.28235e+007
887.879	1.28267e+007
887.397	1.27974e+007
886.915	1.27273e+007
886.432	1.2665e+007
885.95	1.26623e+007
885.468	1.26994e+007
884.985	1.27063e+007
884.503	1.26529e+007
884.021	1.25811e+007
883.539	1.25472e+007
883.056	1.25614e+007
882.574	1.25888e+007
882.092	1.25873e+007
881.609	1.25415e+007
881.127	1.24747e+007
880.645	1.24263e+007
880.163	1.2412e+007
879.68	1.24129e+007
879.198	1.24045e+007
878.716	1.23797e+007
878.234	1.23407e+007
877.751	1.22946e+007
877.269	1.22645e+007
876.787	1.22727e+007
876.304	1.22992e+007
875.822	1.22892e+007
875.34	1.22223e+007
874.858	1.21449e+007
874.375	1.21133e+007
873.893	1.21293e+007
873.411	1.21509e+007
872.928	1.21429e+007
872.446	1.20986e+007
871.964	1.20364e+007
871.482	1.19928e+007
870.999	1.19935e+007
870.517	1.20166e+007
870.035	1.20097e+007
869.552	1.19562e+007
869.07	1.18964e+007
868.588	1.18713e+007
868.106	1.18761e+007
867.623	1.18823e+007
867.141	1.1873e+007
866.659	1.18404e+007
866.177	1.17855e+007
865.694	1.17362e+007
865.212	1.1731e+007
864.73	1.17635e+007
864.247	1.17771e+007
863.765	1.17359e+007
863.283	1.16688e+007
862.801	1.16259e+007
862.318	1.16198e+007
861.836	1.16295e+007
861.354	1.16292e+007
860.871	1.15982e+007
860.389	1.15347e+007
859.907	1.14746e+007
859.425	1.14647e+007
858.942	1.14979e+007
858.46	1.15121e+007
857.978	1.14673e+007
857.495	1.13928e+007
857.013	1.13407e+007
856.531	1.13278e+007
856.049	1.13388e+007
855.566	1.13494e+007
855.084	1.1332e+007
854.602	1.12746e+007
854.119	1.12098e+007
853.637	1.11904e+007
853.155	1.12205e+007
852.673	1.1247e+007
852.19	1.12297e+007
851.708	1.11838e+007
851.226	1.11439e+007
850.744	1.1126e+007
850.261	1.11337e+007
849.779	1.11582e+007
849.297	1.1165e+007
848.814	1.11262e+007
848.332	1.10741e+007
847.85	1.10742e+007
847.368	1.11322e+007
846.885	1.11806e+007
846.403	1.11724e+007
845.921	1.11323e+007
845.438	1.10995e+007
844.956	1.10794e+007
844.474	1.10732e+007
843.992	1.10949e+007
843.509	1.1128e+007
843.027	1.11215e+007
842.545	1.10648e+007
842.062	1.10177e+007
841.58	1.10296e+007
841.098	1.10753e+007
840.616	1.11035e+007
840.133	1.11029e+007
839.651	1.10881e+007
839.169	1.10665e+007
838.686	1.10565e+007
838.204	1.10895e+007
837.722	1.11542e+007
837.24	1.11795e+007
836.757	1.11232e+007
836.275	1.10403e+007
835.793	1.10159e+007
835.311	1.10554e+007
834.828	1.10897e+007
834.346	1.10692e+007
833.864	1.10094e+007
833.381	1.09545e+007
832.899	1.09332e+007
832.417	1.09466e+007
831.935	1.09677e+007
831.452	1.09571e+007
830.97	1.09008e+007
830.488	1.08312e+007
830.005	1.07955e+007
829.523	1.08081e+007
829.041	1.08394e+007
828.559	1.08436e+007
828.076	1.07956e+007
827.594	1.07151e+007
827.112	1.06564e+007
826.629	1.06569e+007
826.147	1.06941e+007
825.665	1.07107e+007
825.183	1.06787e+007
824.7	1.06201e+007
824.218	1.05717e+007
823.736	1.05537e+007
823.254	1.05669e+007
822.771	1.05892e+007
822.289	1.05789e+007
821.807	1.05157e+007
821.324	1.04394e+007
820.842	1.04136e+007
820.36	1.04478e+007
819.878	1.0486e+007
819.395	1.04756e+007
818.913	1.04185e+007
818.431	1.03558e+007
817.948	1.03283e+007
817.466	1.03501e+007
816.984	1.039e+007
816.502	1.03864e+007
816.019	1.03126e+007
815.537	1.02225e+007
815.055	1.01937e+007
814.572	1.02307e+007
814.09	1.02641e+007
813.608	1.02431e+007
813.126	1.01829e+007
812.643	1.01242e+007
812.161	1.009e+007
811.679	1.00905e+007
811.196	1.01223e+007
810.714	1.01494e+007
810.232	1.01284e+007
809.75	1.00705e+007
809.267	1.00427e+007
808.785	1.00866e+007
808.303	1.01662e+007
807.821	1.0213e+007
807.338	1.01998e+007
806.856	1.01539e+007
806.374	1.01216e+007
805.891	1.01332e+007
805.409	1.0182e+007
804.927	1.02244e+007
804.445	1.02165e+007
803.962	1.01628e+007
803.48	1.01152e+007
802.998	1.0117e+007
802.515	1.01584e+007
802.033	1.01911e+007
801.551	1.01758e+007
801.069	1.01149e+007
800.586	1.00518e+007
800.104	1.00345e+007
799.622	1.00687e+007
799.139	1.01074e+007
798.657	1.00986e+007
798.175	1.00393e+007
797.693	9.97391e+006
797.21	9.94609e+006
796.728	9.96091e+006
796.246	9.98545e+006
795.763	9.97745e+006
795.281	9.924e+006
794.799	9.85998e+006
794.317	9.83652e+006
793.834	9.86413e+006
793.352	9.90111e+006
792.87	9.9027e+006
792.388	9.86265e+006
791.905	9.80368e+006
791.423	9.75343e+006
790.941	9.73695e+006
790.458	9.76102e+006
789.976	9.79144e+006
789.494	9.77693e+006
789.012	9.71389e+006
788.529	9.65888e+006
788.047	9.65808e+006
787.565	9.69207e+006
787.082	9.70898e+006
786.6	9.68319e+006
786.118	9.62349e+006
785.636	9.55573e+006
785.153	9.51793e+006
784.671	9.53721e+006
784.189	9.58512e+006
783.706	9.58995e+006
783.224	9.52423e+006
782.742	9.44875e+006
782.26	9.43667e+006
781.777	9.48156e+006
781.295	9.51542e+006
780.813	9.49439e+006
780.331	9.43251e+006
779.848	9.37016e+006
779.366	9.3415e+006
778.884	9.35628e+006
778.401	9.38445e+006
777.919	9.37403e+006
777.437	9.30999e+006
776.955	9.24012e+006
776.472	9.21976e+006
775.99	9.24799e+006
775.508	9.27898e+006
775.025	9.27705e+006
774.543	9.23921e+006
774.061	9.18408e+006
773.579	9.14264e+006
773.096	9.14158e+006
772.614	9.17217e+006
772.132	9.1892e+006
771.649	9.15904e+006
771.167	9.0964e+006
770.685	9.04257e+006
770.203	9.02421e+006
769.72	9.04012e+006
769.238	9.06437e+006
768.756	9.05551e+006
768.273	8.9936e+006
767.791	8.9187e+006
767.309	8.89894e+006
766.827	8.94467e+006
766.344	8.98804e+006
765.862	8.96678e+006
765.38	8.89628e+006
764.898	8.83765e+006
764.415	8.82513e+006
763.933	8.84703e+006
763.451	8.87006e+006
762.968	8.86036e+006
762.486	8.80621e+006
762.004	8.74017e+006
761.522	8.71429e+006
761.039	8.73627e+006
760.557	8.75636e+006
760.075	8.73234e+006
759.592	8.67843e+006
759.11	8.63393e+006
758.628	8.61528e+006
758.146	8.61753e+006
757.663	8.63025e+006
757.181	8.63023e+006
756.699	8.59026e+006
756.216	8.52013e+006
755.734	8.47122e+006
755.252	8.47591e+006
754.77	8.5064e+006
754.287	8.51414e+006
753.805	8.48489e+006
753.323	8.43564e+006
752.84	8.38606e+006
752.358	8.35599e+006
751.876	8.36207e+006
751.394	8.38895e+006
750.911	8.38838e+006
750.429	8.33633e+006
749.947	8.27283e+006
749.465	8.2563e+006
748.982	8.29128e+006
748.5	8.32594e+006
748.018	8.31207e+006
747.535	8.24863e+006
747.053	8.1752e+006
746.571	8.13776e+006
746.089	8.1511e+006
745.606	8.18153e+006
745.124	8.17652e+006
744.642	8.12158e+006
744.159	8.05718e+006
743.677	8.0319e+006
743.195	8.05043e+006
742.713	8.0742e+006
742.23	8.06053e+006
741.748	7.99743e+006
741.266	7.91493e+006
740.783	7.86547e+006
740.301	7.87548e+006
739.819	7.91154e+006
739.337	7.91208e+006
738.854	7.85733e+006
738.372	7.7894e+006
737.89	7.75873e+006
737.408	7.77072e+006
736.925	7.79183e+006
736.443	7.78779e+006
735.961	7.74683e+006
735.478	7.68393e+006
734.996	7.63396e+006
734.514	7.62574e+006
734.032	7.65086e+006
733.549	7.66721e+006
733.067	7.64079e+006
732.585	7.57745e+006
732.102	7.51298e+006
731.62	7.48198e+006
731.138	7.49275e+006
730.656	7.51678e+006
730.173	7.50585e+006
729.691	7.44088e+006
729.209	7.36422e+006
728.726	7.33929e+006
728.244	7.37339e+006
727.762	7.40708e+006
727.28	7.38978e+006
726.797	7.33621e+006
726.315	7.28999e+006
725.833	7.26288e+006
725.35	7.24223e+006
724.868	7.23167e+006
724.386	7.23685e+006
723.904	7.22551e+006
723.421	7.16246e+006
722.939	7.08846e+006
722.457	7.09059e+006
721.975	7.15856e+006
721.492	7.14478e+006
721.01	6.94624e+006
720.528	6.68174e+006
720.045	6.58531e+006
719.563	6.72624e+006
719.081	6.93356e+006
718.599	7.01895e+006
718.116	6.97629e+006
717.634	6.91407e+006
717.152	6.88607e+006
716.669	6.87264e+006
716.187	6.86547e+006
715.705	6.87267e+006
715.223	6.86763e+006
714.74	6.81772e+006
714.258	6.75124e+006
713.776	6.72493e+006
713.293	6.7357e+006
712.811	6.73004e+006
712.329	6.69078e+006
711.847	6.65019e+006
711.364	6.62514e+006
710.882	6.60301e+006
710.4	6.58622e+006
709.917	6.58799e+006
709.435	6.58699e+006
708.953	6.54861e+006
708.471	6.49037e+006
707.988	6.46563e+006
707.506	6.48039e+006
707.024	6.48463e+006
706.542	6.44927e+006
706.059	6.39661e+006
705.577	6.35231e+006
705.095	6.32097e+006
704.612	6.30974e+006
704.13	6.32135e+006
703.648	6.32244e+006
703.166	6.27425e+006
702.683	6.198e+006
702.201	6.15648e+006
701.719	6.1665e+006
701.236	6.17988e+006
700.754	6.15502e+006
700.272	6.09999e+006
699.79	6.04304e+006
699.307	6.00513e+006
698.825	5.99947e+006
698.343	6.01406e+006
697.86	6.00064e+006
697.378	5.92734e+006
696.896	5.83553e+006
696.414	5.79721e+006
695.931	5.82147e+006
695.449	5.84786e+006
694.967	5.82548e+006
694.485	5.75799e+006
694.002	5.6807e+006
693.52	5.63143e+006
693.038	5.62899e+006
692.555	5.64528e+006
692.073	5.62041e+006
691.591	5.53854e+006
691.109	5.4574e+006
690.626	5.42785e+006
690.144	5.42519e+006
689.662	5.40072e+006
689.179	5.3535e+006
688.697	5.30433e+006
688.215	5.25132e+006
687.733	5.20398e+006
687.25	5.20386e+006
686.768	5.25036e+006
686.286	5.26406e+006
685.803	5.1908e+006
685.321	5.08743e+006
684.839	5.03867e+006
684.357	5.04655e+006
683.874	5.06511e+006
683.392	5.07711e+006
682.91	5.06788e+006
682.427	4.99959e+006
681.945	4.88949e+006
681.463	4.83684e+006
680.981	4.88875e+006
680.498	4.95533e+006
680.016	4.93917e+006
679.534	4.86528e+006
679.052	4.80307e+006
678.569	4.75843e+006
678.087	4.7309e+006
677.605	4.76598e+006
677.122	4.8492e+006
676.64	4.86532e+006
676.158	4.77213e+006
675.676	4.69096e+006
675.193	4.71309e+006
674.711	4.75792e+006
674.229	4.74423e+006
673.746	4.73723e+006
673.264	4.78307e+006
672.782	4.78183e+006
672.3	4.69026e+006
671.817	4.64708e+006
671.335	4.70952e+006
670.853	4.69921e+006
670.37	4.51977e+006
669.888	4.31719e+006
669.406	4.02792e+006
668.924	3.17649e+006
668.441	1.67397e+006
667.959	512559
667.477	895337
666.994	2.67763e+006
666.512	4.38922e+006
666.03	4.95095e+006
665.548	4.71009e+006
665.065	4.54494e+006
664.583	4.64214e+006
664.101	4.64162e+006
663.619	4.46713e+006
663.136	4.37967e+006
662.654	4.43464e+006
662.172	4.42828e+006
661.689	4.30972e+006
661.207	4.2365e+006
660.725	4.25436e+006
660.243	4.24785e+006
659.76	4.1873e+006
659.278	4.15583e+006
658.796	4.15201e+006
658.313	4.0957e+006
657.831	4.00746e+006
657.349	3.98129e+006
656.867	4.00543e+006
656.384	3.98923e+006
655.902	3.9352e+006
655.42	3.91869e+006
654.937	3.93295e+006
654.455	3.91116e+006
653.973	3.86555e+006
653.491	3.85617e+006
653.008	3.85799e+006
652.526	3.80314e+006
652.044	3.72284e+006
651.562	3.70977e+006
651.079	3.76289e+006
650.597	3.79281e+006
650.115	3.76045e+006
649.632	3.70335e+006
649.15	3.65129e+006
648.668	3.61372e+006
648.186	3.61828e+006
647.703	3.66834e+006
647.221	3.69804e+006
646.739	3.65644e+006
646.256	3.59498e+006
645.774	3.58845e+006
645.292	3.61862e+006
644.81	3.62227e+006
644.327	3.6016e+006
643.845	3.5953e+006
643.363	3.59062e+006
642.88	3.55843e+006
642.398	3.52953e+006
641.916	3.54128e+006
641.434	3.55125e+006
640.951	3.49955e+006
640.469	3.42023e+006
639.987	3.39539e+006
639.504	3.42687e+006
639.022	3.44471e+006
638.54	3.42163e+006
638.058	3.39314e+006
637.575	3.37932e+006
637.093	3.36537e+006
636.611	3.35085e+006
636.129	3.35023e+006
635.646	3.35162e+006
635.164	3.33167e+006
634.682	3.30233e+006
634.199	3.29424e+006
633.717	3.30576e+006
633.235	3.31087e+006
632.753	3.30199e+006
632.27	3.2874e+006
631.788	3.26536e+006
631.306	3.2361e+006
630.823	3.21868e+006
630.341	3.22379e+006
629.859	3.22951e+006
629.377	3.21119e+006
628.894	3.17472e+006
628.412	3.14042e+006
627.93	3.11759e+006
627.447	3.10861e+006
626.965	3.10861e+006
626.483	3.09192e+006
626.001	3.03589e+006
625.518	2.96688e+006
625.036	2.9403e+006
624.554	2.96395e+006
624.071	2.98483e+006
623.589	2.962e+006
623.107	2.90847e+006
622.625	2.85421e+006
622.142	2.81533e+006
621.66	2.80484e+006
621.178	2.82277e+006
620.696	2.83271e+006
620.213	2.80134e+006
619.731	2.75758e+006
619.249	2.75048e+006
618.766	2.75716e+006
618.284	2.71188e+006
617.802	2.62601e+006
617.32	2.5874e+006
616.837	2.62584e+006
616.355	2.67286e+006
615.873	2.68094e+006
615.39	2.68749e+006
614.908	2.72076e+006
614.426	2.73551e+006
613.944	2.69865e+006
613.461	2.65994e+006
612.979	2.67324e+006
612.497	2.71052e+006
612.014	2.71597e+006
611.532	2.69298e+006
611.05	2.67896e+006
610.568	2.67934e+006
610.085	2.68237e+006
609.603	2.69941e+006
609.121	2.7374e+006
608.639	2.76421e+006
608.156	2.75041e+006
607.674	2.71882e+006
607.192	2.71122e+006
606.709	2.72998e+006
606.227	2.74743e+006
605.745	2.74887e+006
605.263	2.73633e+006
604.78	2.71482e+006
604.298	2.70069e+006
603.816	2.71658e+006
603.333	2.75415e+006
602.851	2.76985e+006
602.369	2.7411e+006
601.887	2.69847e+006
601.404	2.68006e+006
600.922	2.68308e+006
600.44	2.68368e+006
599.957	2.67587e+006
599.475	2.66571e+006
598.993	2.65182e+006
598.511	2.6361e+006
598.028	2.6328e+006
597.546	2.64457e+006
597.064	2.64726e+006
596.581	2.61865e+006
596.099	2.56892e+006
595.617	2.528e+006
595.135	2.51397e+006
594.652	2.5221e+006
594.17	2.53168e+006
593.688	2.51812e+006
593.206	2.47323e+006
592.723	2.41875e+006
592.241	2.38722e+006
591.759	2.3878e+006
591.276	2.40096e+006
590.794	2.4023e+006
590.312	2.38012e+006
589.83	2.33978e+006
589.347	2.30555e+006
588.865	2.30366e+006
588.383	2.32511e+006
587.9	2.32384e+006
587.418	2.2761e+006
586.936	2.22104e+006
586.454	2.21e+006
585.971	2.23352e+006
585.489	2.23717e+006
585.007	2.19833e+006
584.524	2.1466e+006
584.042	2.11342e+006
583.56	2.10079e+006
583.078	2.0997e+006
582.595	2.10257e+006
582.113	2.0926e+006
581.631	2.05316e+006
581.148	1.996e+006
580.666	1.95668e+006
580.184	1.95497e+006
579.702	1.97545e+006
579.219	1.98768e+006
578.737	1.97304e+006
578.255	1.93654e+006
577.773	1.90355e+006
577.29	1.8951e+006
576.808	1.89775e+006
576.326	1.8765e+006
575.843	1.8283e+006
575.361	1.79549e+006
574.879	1.80719e+006
574.397	1.83715e+006
573.914	1.84591e+006
573.432	1.83383e+006
572.95	1.81972e+006
572.467	1.79893e+006
571.985	1.76517e+006
571.503	1.74696e+006
571.021	1.77111e+006
570.538	1.80653e+006
570.056	1.7978e+006
569.574	1.74758e+006
569.091	1.71434e+006
568.609	1.72796e+006
568.127	1.75613e+006
567.645	1.76146e+006
567.162	1.74687e+006
566.68	1.73163e+006
566.198	1.72119e+006
565.716	1.71795e+006
565.233	1.73018e+006
564.751	1.75165e+006
564.269	1.75723e+006
563.786	1.73654e+006
563.304	1.71259e+006
562.822	1.71092e+006
562.34	1.72636e+006
561.857	1.73587e+006
561.375	1.73065e+006
560.893	1.71964e+006
560.41	1.71095e+006
559.928	1.70656e+006
559.446	1.71051e+006
558.964	1.72544e+006
558.481	1.73937e+006
557.999	1.7313e+006
557.517	1.69916e+006
557.034	1.67252e+006
556.552	1.68262e+006
556.07	1.72121e+006
555.588	1.74549e+006
555.105	1.72885e+006
554.623	1.69164e+006
554.141	1.67152e+006
553.658	1.678e+006
553.176	1.69194e+006
552.694	1.69722e+006
552.212	1.69179e+006
551.729	1.6747e+006
551.247	1.64712e+006
550.765	1.62572e+006
550.283	1.63108e+006
549.8	1.6568e+006
549.318	1.66965e+006
548.836	1.64944e+006
548.353	1.61433e+006
547.871	1.59679e+006
547.389	1.60473e+006
546.907	1.61649e+006
546.424	1.60889e+006
545.942	1.58185e+006
545.46	1.55575e+006
544.977	1.54901e+006
544.495	1.56051e+006
544.013	1.57338e+006
543.531	1.57101e+006
543.048	1.54692e+006
542.566	1.50697e+006
542.084	1.47129e+006
541.601	1.46463e+006
541.119	1.48786e+006
540.637	1.50629e+006
540.155	1.48773e+006
539.672	1.44777e+006
539.19	1.43105e+006
538.708	1.44971e+006
538.225	1.47081e+006
537.743	1.46663e+006
537.261	1.4434e+006
536.779	1.41504e+006
536.296	1.38577e+006
535.814	1.36903e+006
535.332	1.38343e+006
534.85	1.41241e+006
534.367	1.40717e+006
533.885	1.35289e+006
533.403	1.29698e+006
532.92	1.28595e+006
532.438	1.30669e+006
531.956	1.31589e+006
531.474	1.29742e+006
530.991	1.26436e+006
530.509	1.23216e+006
530.027	1.21433e+006
529.544	1.21857e+006
529.062	1.22722e+006
528.58	1.20979e+006
528.098	1.16969e+006
527.615	1.14267e+006
527.133	1.13622e+006
526.651	1.11687e+006
526.168	1.07645e+006
525.686	1.05467e+006
525.204	1.0666e+006
524.722	1.06701e+006
524.239	1.0288e+006
523.757	997879
523.275	1.01587e+006
522.792	1.04139e+006
522.31	1.01366e+006
521.828	951838
521.346	920051
520.863	924811
520.381	919763
519.899	892316
519.417	873730
518.934	871565
518.452	858163
517.97	827068
517.487	804704
517.005	801407
516.523	797118
516.041	779707
515.558	759394
515.076	744269
514.594	733421
514.111	729633
513.629	729864
513.147	714400
512.665	675743
512.182	642523
511.7	640816
511.218	649194
510.735	630265
510.253	590349
509.771	565978
509.289	564132
508.806	559382
508.324	541693
507.842	523890
507.36	506476
506.877	477198
506.395	445190
505.913	436130
505.43	449522
504.948	454877
504.466	435728
503.984	407927
503.501	388605
503.019	373667
502.537	354372
502.054	335218
501.572	325265
501.09	323652
500.608	320538
500.125	307995
499.643	289691
